##TITLE=Column 1
##JCAMP-DX=4.24
##DATA TYPE=INFRARED SPECTRUM
##Method:,Column 1,Built-In Reference,,,Model Name,NIR-S-G1
##Host Date-Time:,27/10/20 @ 13:11:30,13/5/20 @ 16:0:36,,,GUI Version,3.6.4
##Header Version:,1,1,,,Tiva Version,2.4.4.0
##System Temp (C):,47.81,34.7,,,DLPC Version,2.2.0
##Detector Temp (C),0,0,,,UUID,DE:67:0C:88:67:4B:68:21
##Humidity (%):,30.4,35.27,,,Main Board Version,D
##Lamp PD:,1919,1767
##Shift Vector Coefficients:,-7.40266672958336,0.0577935962102471,-0.000112288131265282
##Pixel to Wavelength Coefficients:,1779.07784909224,-0.923938295271985,-0.000239032023878199
##Serial Number:,947R033,947R033
##Scan Config Name:,Column 1,SystemTest
##Scan Config Type:,Column,Column
##Start wavelength (nm):,900,900
##End wavelength (nm):,1700,1700
##Pattern Pixel Width (nm):,7.03,7.03
##Exposure (ms):,0.635,0.635
##Digital Resolution:,228,228
##NPOINTS=228
##Num Repeats:,6,30
##PGA Gain:,64,64
##Total Measurement Time in sec:,2.1093365
##XUNITS=Wavelength(nm)
##YUNITS=Intensity
##FIRSTX=901.938585242429
##LASTX=1701.22602801978
##PEAK TABLE=X+(Y..Y)
901.938585242429,14674
905.839109344998,16416
909.735330871137,17741
913.627249820846,18938
917.514866194126,20851
921.398179990975,23054
925.277191211395,26152
929.151899855385,29320
933.022305922945,32824
938.17615444969,37181
942.036521172247,40300
945.892585318375,42677
949.744346888073,45637
953.59180588134,47595
957.434962298178,49811
961.273816138587,52434
965.108367402565,54649
968.938616090114,56629
974.03892144351,59952
977.859130786056,62349
981.675037552172,64924
985.486641741858,67233
989.293943355114,69465
993.096942391941,71347
996.895638852337,73046
1000.6900327363,74284
1004.48012404384,75766
1009.52688622389,77195
1013.30693818642,78437
1017.08268757253,79694
1020.8541343822,79902
1024.62127861545,80844
1028.38412027226,80989
1032.14265935265,81120
1035.8968958566,81050
1039.64682978413,81534
1044.64004879083,81488
1048.37994337335,81146
1052.11553537944,81257
1055.84682480911,80992
1059.57381166234,80814
1063.29649593914,80574
1067.01487763952,80304
1070.72895676346,80106
1074.43873331097,80392
1079.37840914432,79815
1083.07814634683,79757
1086.77358097292,80026
1090.46471302257,80273
1094.15154249579,80400
1097.83406939258,80508
1101.51229371294,81074
1105.18621545688,81306
1108.85583462438,81497
1113.74196728438,81935
1117.40154710688,83242
1121.05682435295,82876
1124.70779902259,83753
1128.3544711158,84688
1131.99684063258,85108
1135.63490757293,85740
1139.26867193685,86497
1142.89813372434,87293
1147.73072321099,88323
1151.35014565348,88747
1154.96526551954,89442
1158.57608280917,90422
1162.18259752237,90627
1165.78480965914,91152
1169.38271921947,91587
1172.97632620338,92416
1176.56563061086,93393
1181.34467692417,93940
1184.92394198664,95017
1188.49890447269,96261
1192.06956438231,97420
1195.63592171549,98533
1199.19797647225,99763
1202.75572865258,100893
1206.30917825648,102774
1209.85832528395,104119
1214.5838284239,105775
1218.12293610637,107169
1221.6577412124,108653
1225.18824374201,109452
1228.71444369518,111560
1232.23634107193,112770
1235.75393587224,114339
1239.26722809613,115426
1242.77621774359,116273
1247.44817771019,118745
1250.94712801265,120517
1254.44177573867,121836
1257.93212088826,123327
1261.41816346143,124409
1264.89990345816,125988
1268.37734087847,126760
1271.85047572234,127856
1275.31930798978,129565
1279.93772478304,130391
1283.39651770548,131387
1286.8510080515,132195
1290.30119582108,133260
1293.74708101423,133939
1297.18866363095,134503
1300.62594367125,134718
1304.05892113511,135578
1307.48759602254,136509
1312.05246964245,137059
1315.47110518488,137466
1318.88543815088,137476
1322.29546854045,138181
1325.70119635359,138221
1329.10262159031,138491
1332.49974425059,138603
1335.89256433444,138402
1339.28108184186,138105
1343.79241228842,138571
1347.17089045084,138362
1350.54506603683,138211
1353.91493904639,137354
1357.28050947952,137527
1360.64177733622,136976
1363.99874261649,136974
1367.35140532033,136962
1370.69976544774,136893
1375.15755272095,136511
1378.49587350336,135495
1381.82989170933,134192
1385.15960733888,133820
1388.485020392,133259
1391.80613086869,132420
1395.12293876895,131980
1398.43544409277,130968
1401.74364684017,130274
1406.14789094004,129247
1409.44605434243,128521
1412.7399151684,128119
1416.02947341793,127311
1419.31472909104,127510
1422.59568218772,126509
1425.87233270796,126533
1429.14468065178,125887
1432.41272601917,125964
1436.76342694568,125595
1440.02143296807,125663
1443.27513641402,125274
1446.52453728354,124743
1449.76963557664,124483
1453.0104312933,123931
1456.24692443354,123571
1459.47911499734,123058
1462.70700298472,122273
1467.00416073789,122280
1470.22200938026,121443
1473.4355554462,120918
1476.64479893571,119483
1479.8497398488,119279
1483.05037818545,118049
1486.24671394567,117058
1489.43874712947,116490
1492.62647773683,114950
1496.87009231665,113673
1500.04778357901,112578
1503.22117226494,111508
1506.39025837444,110313
1509.55504190751,109797
1512.71552286416,108909
1515.87170124437,107485
1519.02357704815,106674
1522.1711502755,105643
1526.36122168197,104274
1529.49875556432,103708
1532.63198687024,101924
1535.76091559973,101559
1538.88554175279,100061
1542.00586532942,99248
1545.12188632962,97843
1548.23360475339,96641
1551.34102060073,94857
1555.47754883385,93443
1558.57492533619,91682
1561.6679992621,90592
1564.75677061158,88637
1567.84123938463,87414
1570.92140558125,85489
1573.99726920143,83467
1577.06883024519,81762
1580.13608871252,80226
1584.21907377229,78073
1587.27629289462,76499
1590.32920944052,75033
1593.37782340998,73226
1596.42213480302,72035
1599.46214361963,70344
1602.49784985981,68529
1605.52925352355,67172
1608.55635461087,65683
1612.58579649729,63509
1615.60285823961,61669
1618.61561740549,60072
1621.62407399495,58543
1624.62822800797,56538
1627.62807944457,55744
1630.62362830474,54217
1633.61487458847,52836
1636.60181829578,50842
1640.57771700885,49443
1643.55462137116,47741
1646.52722315703,46020
1649.49552236647,44902
1652.45951899949,43065
1655.41921305607,42332
1658.37460453623,40589
1661.32569343995,39161
1664.27247976724,37552
1668.19483530697,35515
1671.13158228926,34681
1674.06402669512,33022
1676.99216852456,31266
1679.91600777756,29442
1682.83554445413,27802
1685.75077855427,25437
1688.66171007799,22893
1691.56833902527,20089
1695.43715139165,16997
1698.33374099393,14120
1701.22602801978,12222
##END=
