##TITLE=Column 1
##JCAMP-DX=4.24
##DATA TYPE=INFRARED SPECTRUM
##Method:,Column 1,Built-In Reference,,,Model Name,NIR-S-G1
##Host Date-Time:,27/10/20 @ 13:12:39,13/5/20 @ 16:0:36,,,GUI Version,3.6.4
##Header Version:,1,1,,,Tiva Version,2.4.4.0
##System Temp (C):,48.42,34.7,,,DLPC Version,2.2.0
##Detector Temp (C),0,0,,,UUID,DE:67:0C:88:67:4B:68:21
##Humidity (%):,29.8,35.27,,,Main Board Version,D
##Lamp PD:,1921,1767
##Shift Vector Coefficients:,-7.40266672958336,0.0577935962102471,-0.000112288131265282
##Pixel to Wavelength Coefficients:,1779.07784909224,-0.923938295271985,-0.000239032023878199
##Serial Number:,947R033,947R033
##Scan Config Name:,Column 1,SystemTest
##Scan Config Type:,Column,Column
##Start wavelength (nm):,900,900
##End wavelength (nm):,1700,1700
##Pattern Pixel Width (nm):,7.03,7.03
##Exposure (ms):,0.635,0.635
##Digital Resolution:,228,228
##NPOINTS=228
##Num Repeats:,6,30
##PGA Gain:,64,64
##Total Measurement Time in sec:,2.0971744
##XUNITS=Wavelength(nm)
##YUNITS=Intensity
##FIRSTX=901.938585242429
##LASTX=1701.22602801978
##PEAK TABLE=X+(Y..Y)
901.938585242429,11106
905.839109344998,12875
909.735330871137,13390
913.627249820846,15070
917.514866194126,16922
921.398179990975,18745
925.277191211395,21294
929.151899855385,24252
933.022305922945,27706
938.17615444969,31923
942.036521172247,34842
945.892585318375,37141
949.744346888073,39565
953.59180588134,41284
957.434962298178,43959
961.273816138587,45663
965.108367402565,47952
968.938616090114,49974
974.03892144351,53247
977.859130786056,54800
981.675037552172,56855
985.486641741858,59496
989.293943355114,61146
993.096942391941,62679
996.895638852337,64284
1000.6900327363,65014
1004.48012404384,66710
1009.52688622389,67786
1013.30693818642,68894
1017.08268757253,69828
1020.8541343822,70301
1024.62127861545,71049
1028.38412027226,70533
1032.14265935265,71277
1035.8968958566,71314
1039.64682978413,71164
1044.64004879083,71472
1048.37994337335,71373
1052.11553537944,71310
1055.84682480911,70759
1059.57381166234,70535
1063.29649593914,70490
1067.01487763952,69905
1070.72895676346,69783
1074.43873331097,69601
1079.37840914432,69406
1083.07814634683,69441
1086.77358097292,69255
1090.46471302257,69183
1094.15154249579,69565
1097.83406939258,70195
1101.51229371294,70053
1105.18621545688,70357
1108.85583462438,70401
1113.74196728438,71172
1117.40154710688,71815
1121.05682435295,71713
1124.70779902259,72512
1128.3544711158,73120
1131.99684063258,73381
1135.63490757293,74120
1139.26867193685,74557
1142.89813372434,75072
1147.73072321099,75847
1151.35014565348,77131
1154.96526551954,77237
1158.57608280917,78408
1162.18259752237,78875
1165.78480965914,80010
1169.38271921947,80164
1172.97632620338,80946
1176.56563061086,81454
1181.34467692417,83155
1184.92394198664,84103
1188.49890447269,85104
1192.06956438231,86357
1195.63592171549,87550
1199.19797647225,88276
1202.75572865258,89988
1206.30917825648,91262
1209.85832528395,92943
1214.5838284239,94264
1218.12293610637,95915
1221.6577412124,96897
1225.18824374201,98322
1228.71444369518,99907
1232.23634107193,100792
1235.75393587224,102521
1239.26722809613,103365
1242.77621774359,104557
1247.44817771019,106138
1250.94712801265,107409
1254.44177573867,108953
1257.93212088826,110161
1261.41816346143,111387
1264.89990345816,112596
1268.37734087847,113463
1271.85047572234,114425
1275.31930798978,115055
1279.93772478304,116092
1283.39651770548,116856
1286.8510080515,117631
1290.30119582108,118335
1293.74708101423,118688
1297.18866363095,119168
1300.62594367125,119942
1304.05892113511,120512
1307.48759602254,121085
1312.05246964245,121628
1315.47110518488,121604
1318.88543815088,121188
1322.29546854045,122074
1325.70119635359,122203
1329.10262159031,122229
1332.49974425059,122544
1335.89256433444,122077
1339.28108184186,122580
1343.79241228842,122713
1347.17089045084,122532
1350.54506603683,122426
1353.91493904639,121924
1357.28050947952,122027
1360.64177733622,122085
1363.99874261649,121699
1367.35140532033,121327
1370.69976544774,121696
1375.15755272095,121435
1378.49587350336,120622
1381.82989170933,119290
1385.15960733888,119078
1388.485020392,118719
1391.80613086869,118094
1395.12293876895,117640
1398.43544409277,116498
1401.74364684017,116725
1406.14789094004,115759
1409.44605434243,115300
1412.7399151684,114983
1416.02947341793,114301
1419.31472909104,114051
1422.59568218772,113576
1425.87233270796,113604
1429.14468065178,113642
1432.41272601917,113306
1436.76342694568,113301
1440.02143296807,113633
1443.27513641402,112632
1446.52453728354,113022
1449.76963557664,112942
1453.0104312933,112874
1456.24692443354,111898
1459.47911499734,111555
1462.70700298472,111418
1467.00416073789,110537
1470.22200938026,110529
1473.4355554462,110059
1476.64479893571,109528
1479.8497398488,108692
1483.05037818545,107694
1486.24671394567,106761
1489.43874712947,106620
1492.62647773683,105376
1496.87009231665,103708
1500.04778357901,103563
1503.22117226494,102522
1506.39025837444,102017
1509.55504190751,100918
1512.71552286416,100240
1515.87170124437,99601
1519.02357704815,98940
1522.1711502755,98192
1526.36122168197,96657
1529.49875556432,96080
1532.63198687024,94921
1535.76091559973,94132
1538.88554175279,93226
1542.00586532942,92545
1545.12188632962,91747
1548.23360475339,90452
1551.34102060073,88929
1555.47754883385,87953
1558.57492533619,86046
1561.6679992621,85873
1564.75677061158,84275
1567.84123938463,82567
1570.92140558125,81498
1573.99726920143,79915
1577.06883024519,78129
1580.13608871252,76678
1584.21907377229,75121
1587.27629289462,73695
1590.32920944052,72423
1593.37782340998,70640
1596.42213480302,69560
1599.46214361963,68471
1602.49784985981,66519
1605.52925352355,65713
1608.55635461087,63860
1612.58579649729,61630
1615.60285823961,60271
1618.61561740549,58827
1621.62407399495,57261
1624.62822800797,55960
1627.62807944457,54341
1630.62362830474,53038
1633.61487458847,51278
1636.60181829578,50126
1640.57771700885,48034
1643.55462137116,46311
1646.52722315703,45037
1649.49552236647,43579
1652.45951899949,42096
1655.41921305607,40609
1658.37460453623,39426
1661.32569343995,38127
1664.27247976724,36554
1668.19483530697,34561
1671.13158228926,33829
1674.06402669512,31968
1676.99216852456,30273
1679.91600777756,28675
1682.83554445413,26901
1685.75077855427,24540
1688.66171007799,22085
1691.56833902527,19695
1695.43715139165,16628
1698.33374099393,13964
1701.22602801978,11719
##END=
