##TITLE=Column 1
##JCAMP-DX=4.24
##DATA TYPE=INFRARED SPECTRUM
##Method:,Column 1,Built-In Reference,,,Model Name,NIR-S-G1
##Host Date-Time:,27/10/20 @ 13:12:26,13/5/20 @ 16:0:36,,,GUI Version,3.6.4
##Header Version:,1,1,,,Tiva Version,2.4.4.0
##System Temp (C):,48.32,34.7,,,DLPC Version,2.2.0
##Detector Temp (C),0,0,,,UUID,DE:67:0C:88:67:4B:68:21
##Humidity (%):,29.91,35.27,,,Main Board Version,D
##Lamp PD:,1920,1767
##Shift Vector Coefficients:,-7.40266672958336,0.0577935962102471,-0.000112288131265282
##Pixel to Wavelength Coefficients:,1779.07784909224,-0.923938295271985,-0.000239032023878199
##Serial Number:,947R033,947R033
##Scan Config Name:,Column 1,SystemTest
##Scan Config Type:,Column,Column
##Start wavelength (nm):,900,900
##End wavelength (nm):,1700,1700
##Pattern Pixel Width (nm):,7.03,7.03
##Exposure (ms):,0.635,0.635
##Digital Resolution:,228,228
##NPOINTS=228
##Num Repeats:,6,30
##PGA Gain:,64,64
##Total Measurement Time in sec:,2.0958534
##XUNITS=Wavelength(nm)
##YUNITS=Intensity
##FIRSTX=901.938585242429
##LASTX=1701.22602801978
##PEAK TABLE=X+(Y..Y)
901.938585242429,8468
905.839109344998,9142
909.735330871137,9498
913.627249820846,11085
917.514866194126,11928
921.398179990975,12870
925.277191211395,14786
929.151899855385,16033
933.022305922945,18066
938.17615444969,20908
942.036521172247,22711
945.892585318375,23843
949.744346888073,24808
953.59180588134,25952
957.434962298178,26753
961.273816138587,27552
965.108367402565,29496
968.938616090114,30287
974.03892144351,31845
977.859130786056,33573
981.675037552172,34447
985.486641741858,35630
989.293943355114,37117
993.096942391941,38407
996.895638852337,38854
1000.6900327363,39797
1004.48012404384,40197
1009.52688622389,40966
1013.30693818642,41446
1017.08268757253,42048
1020.8541343822,42540
1024.62127861545,43213
1028.38412027226,42951
1032.14265935265,43157
1035.8968958566,43446
1039.64682978413,43252
1044.64004879083,43490
1048.37994337335,43910
1052.11553537944,43586
1055.84682480911,43411
1059.57381166234,43780
1063.29649593914,43125
1067.01487763952,43373
1070.72895676346,43008
1074.43873331097,42810
1079.37840914432,42552
1083.07814634683,43125
1086.77358097292,42930
1090.46471302257,43153
1094.15154249579,43762
1097.83406939258,43501
1101.51229371294,44183
1105.18621545688,44138
1108.85583462438,44703
1113.74196728438,44575
1117.40154710688,45320
1121.05682435295,45802
1124.70779902259,46360
1128.3544711158,46565
1131.99684063258,46762
1135.63490757293,47402
1139.26867193685,47648
1142.89813372434,48274
1147.73072321099,48448
1151.35014565348,49030
1154.96526551954,49134
1158.57608280917,49328
1162.18259752237,50184
1165.78480965914,50689
1169.38271921947,51260
1172.97632620338,51299
1176.56563061086,51779
1181.34467692417,52666
1184.92394198664,53023
1188.49890447269,53797
1192.06956438231,54446
1195.63592171549,55373
1199.19797647225,55467
1202.75572865258,56449
1206.30917825648,56945
1209.85832528395,57961
1214.5838284239,58544
1218.12293610637,59637
1221.6577412124,60227
1225.18824374201,60811
1228.71444369518,61415
1232.23634107193,62293
1235.75393587224,62938
1239.26722809613,63861
1242.77621774359,64304
1247.44817771019,65259
1250.94712801265,66409
1254.44177573867,67157
1257.93212088826,68081
1261.41816346143,68965
1264.89990345816,69299
1268.37734087847,69944
1271.85047572234,70862
1275.31930798978,71183
1279.93772478304,71653
1283.39651770548,72612
1286.8510080515,72765
1290.30119582108,72680
1293.74708101423,74040
1297.18866363095,74044
1300.62594367125,74921
1304.05892113511,74927
1307.48759602254,74758
1312.05246964245,75184
1315.47110518488,75305
1318.88543815088,75998
1322.29546854045,75926
1325.70119635359,75991
1329.10262159031,76113
1332.49974425059,76181
1335.89256433444,76866
1339.28108184186,76606
1343.79241228842,76705
1347.17089045084,77071
1350.54506603683,76138
1353.91493904639,76146
1357.28050947952,75997
1360.64177733622,76129
1363.99874261649,76016
1367.35140532033,76281
1370.69976544774,76634
1375.15755272095,75903
1378.49587350336,75059
1381.82989170933,75035
1385.15960733888,74281
1388.485020392,74061
1391.80613086869,74042
1395.12293876895,73564
1398.43544409277,73297
1401.74364684017,73277
1406.14789094004,72861
1409.44605434243,72806
1412.7399151684,72277
1416.02947341793,71997
1419.31472909104,71754
1422.59568218772,71436
1425.87233270796,71269
1429.14468065178,71249
1432.41272601917,71374
1436.76342694568,70977
1440.02143296807,71182
1443.27513641402,70898
1446.52453728354,70917
1449.76963557664,70887
1453.0104312933,70348
1456.24692443354,70465
1459.47911499734,70270
1462.70700298472,69795
1467.00416073789,69175
1470.22200938026,68839
1473.4355554462,68400
1476.64479893571,68474
1479.8497398488,67758
1483.05037818545,67229
1486.24671394567,66384
1489.43874712947,66416
1492.62647773683,65337
1496.87009231665,65010
1500.04778357901,64020
1503.22117226494,63736
1506.39025837444,63455
1509.55504190751,62411
1512.71552286416,62207
1515.87170124437,61251
1519.02357704815,60688
1522.1711502755,60086
1526.36122168197,59230
1529.49875556432,58346
1532.63198687024,57630
1535.76091559973,57140
1538.88554175279,56055
1542.00586532942,55747
1545.12188632962,55094
1548.23360475339,53929
1551.34102060073,52733
1555.47754883385,52115
1558.57492533619,51190
1561.6679992621,50192
1564.75677061158,49248
1567.84123938463,47882
1570.92140558125,47170
1573.99726920143,45851
1577.06883024519,45090
1580.13608871252,43762
1584.21907377229,42443
1587.27629289462,41805
1590.32920944052,40647
1593.37782340998,39762
1596.42213480302,38746
1599.46214361963,38079
1602.49784985981,36797
1605.52925352355,36398
1608.55635461087,35007
1612.58579649729,33669
1615.60285823961,32570
1618.61561740549,31923
1621.62407399495,30923
1624.62822800797,29924
1627.62807944457,29606
1630.62362830474,28943
1633.61487458847,27694
1636.60181829578,27103
1640.57771700885,25977
1643.55462137116,24872
1646.52722315703,24436
1649.49552236647,23374
1652.45951899949,22598
1655.41921305607,21708
1658.37460453623,21234
1661.32569343995,20343
1664.27247976724,19646
1668.19483530697,18698
1671.13158228926,17885
1674.06402669512,17071
1676.99216852456,16348
1679.91600777756,15508
1682.83554445413,14389
1685.75077855427,13256
1688.66171007799,12196
1691.56833902527,10980
1695.43715139165,8803
1698.33374099393,7567
1701.22602801978,6488
##END=
