##TITLE=Column 1
##JCAMP-DX=4.24
##DATA TYPE=INFRARED SPECTRUM
##Method:,Column 1,Built-In Reference,,,Model Name,NIR-S-G1
##Host Date-Time:,27/10/20 @ 13:12:16,13/5/20 @ 16:0:36,,,GUI Version,3.6.4
##Header Version:,1,1,,,Tiva Version,2.4.4.0
##System Temp (C):,48.25,34.7,,,DLPC Version,2.2.0
##Detector Temp (C),0,0,,,UUID,DE:67:0C:88:67:4B:68:21
##Humidity (%):,29.91,35.27,,,Main Board Version,D
##Lamp PD:,1920,1767
##Shift Vector Coefficients:,-7.40266672958336,0.0577935962102471,-0.000112288131265282
##Pixel to Wavelength Coefficients:,1779.07784909224,-0.923938295271985,-0.000239032023878199
##Serial Number:,947R033,947R033
##Scan Config Name:,Column 1,SystemTest
##Scan Config Type:,Column,Column
##Start wavelength (nm):,900,900
##End wavelength (nm):,1700,1700
##Pattern Pixel Width (nm):,7.03,7.03
##Exposure (ms):,0.635,0.635
##Digital Resolution:,228,228
##NPOINTS=228
##Num Repeats:,6,30
##PGA Gain:,64,64
##Total Measurement Time in sec:,2.0771509
##XUNITS=Wavelength(nm)
##YUNITS=Intensity
##FIRSTX=901.938585242429
##LASTX=1701.22602801978
##PEAK TABLE=X+(Y..Y)
901.938585242429,18251
905.839109344998,20185
909.735330871137,22273
913.627249820846,24177
917.514866194126,26262
921.398179990975,29089
925.277191211395,32959
929.151899855385,36647
933.022305922945,41617
938.17615444969,47577
942.036521172247,51175
945.892585318375,53855
949.744346888073,57090
953.59180588134,59701
957.434962298178,62089
961.273816138587,65673
965.108367402565,68613
968.938616090114,70851
974.03892144351,74771
977.859130786056,77464
981.675037552172,80975
985.486641741858,83439
989.293943355114,86503
993.096942391941,88826
996.895638852337,89985
1000.6900327363,92304
1004.48012404384,93829
1009.52688622389,96278
1013.30693818642,96572
1017.08268757253,98343
1020.8541343822,99276
1024.62127861545,100246
1028.38412027226,100520
1032.14265935265,101095
1035.8968958566,101474
1039.64682978413,101482
1044.64004879083,101469
1048.37994337335,101453
1052.11553537944,101396
1055.84682480911,100858
1059.57381166234,100333
1063.29649593914,100312
1067.01487763952,100481
1070.72895676346,100300
1074.43873331097,100179
1079.37840914432,100329
1083.07814634683,100275
1086.77358097292,100813
1090.46471302257,101172
1094.15154249579,101932
1097.83406939258,101993
1101.51229371294,103145
1105.18621545688,103805
1108.85583462438,104341
1113.74196728438,105251
1117.40154710688,106285
1121.05682435295,106908
1124.70779902259,108190
1128.3544711158,108909
1131.99684063258,109903
1135.63490757293,111254
1139.26867193685,112080
1142.89813372434,112221
1147.73072321099,114063
1151.35014565348,114843
1154.96526551954,115434
1158.57608280917,116110
1162.18259752237,117010
1165.78480965914,118103
1169.38271921947,118411
1172.97632620338,118954
1176.56563061086,119378
1181.34467692417,120835
1184.92394198664,122387
1188.49890447269,123388
1192.06956438231,125038
1195.63592171549,126498
1199.19797647225,128180
1202.75572865258,129780
1206.30917825648,131094
1209.85832528395,132489
1214.5838284239,134776
1218.12293610637,136129
1221.6577412124,138013
1225.18824374201,139561
1228.71444369518,141164
1232.23634107193,143242
1235.75393587224,144901
1239.26722809613,146643
1242.77621774359,148038
1247.44817771019,150810
1250.94712801265,152023
1254.44177573867,154179
1257.93212088826,155712
1261.41816346143,157498
1264.89990345816,159094
1268.37734087847,160592
1271.85047572234,161616
1275.31930798978,163162
1279.93772478304,164727
1283.39651770548,165617
1286.8510080515,166666
1290.30119582108,167864
1293.74708101423,169142
1297.18866363095,169743
1300.62594367125,170417
1304.05892113511,171450
1307.48759602254,172434
1312.05246964245,172771
1315.47110518488,173656
1318.88543815088,173767
1322.29546854045,174683
1325.70119635359,174468
1329.10262159031,174450
1332.49974425059,174897
1335.89256433444,174629
1339.28108184186,175232
1343.79241228842,175210
1347.17089045084,174307
1350.54506603683,174873
1353.91493904639,173588
1357.28050947952,173709
1360.64177733622,173352
1363.99874261649,173648
1367.35140532033,173606
1370.69976544774,173760
1375.15755272095,173132
1378.49587350336,171323
1381.82989170933,169852
1385.15960733888,169455
1388.485020392,168365
1391.80613086869,167792
1395.12293876895,166873
1398.43544409277,166079
1401.74364684017,164522
1406.14789094004,163702
1409.44605434243,163003
1412.7399151684,162122
1416.02947341793,161716
1419.31472909104,160868
1422.59568218772,160641
1425.87233270796,160221
1429.14468065178,159850
1432.41272601917,159837
1436.76342694568,159039
1440.02143296807,159263
1443.27513641402,158967
1446.52453728354,158675
1449.76963557664,158063
1453.0104312933,157450
1456.24692443354,157903
1459.47911499734,156886
1462.70700298472,156343
1467.00416073789,155300
1470.22200938026,154611
1473.4355554462,154243
1476.64479893571,152901
1479.8497398488,152421
1483.05037818545,150805
1486.24671394567,149660
1489.43874712947,148304
1492.62647773683,147108
1496.87009231665,145752
1500.04778357901,144663
1503.22117226494,143618
1506.39025837444,142186
1509.55504190751,141126
1512.71552286416,139958
1515.87170124437,138495
1519.02357704815,137836
1522.1711502755,136348
1526.36122168197,134590
1529.49875556432,133414
1532.63198687024,132150
1535.76091559973,130967
1538.88554175279,129529
1542.00586532942,128298
1545.12188632962,126740
1548.23360475339,125416
1551.34102060073,123351
1555.47754883385,121658
1558.57492533619,119937
1561.6679992621,117979
1564.75677061158,115699
1567.84123938463,113974
1570.92140558125,111601
1573.99726920143,109189
1577.06883024519,106545
1580.13608871252,104954
1584.21907377229,101656
1587.27629289462,99717
1590.32920944052,97908
1593.37782340998,95666
1596.42213480302,93823
1599.46214361963,91475
1602.49784985981,89458
1605.52925352355,86880
1608.55635461087,85387
1612.58579649729,82049
1615.60285823961,80146
1618.61561740549,77772
1621.62407399495,75710
1624.62822800797,73427
1627.62807944457,71234
1630.62362830474,68835
1633.61487458847,67527
1636.60181829578,64940
1640.57771700885,62154
1643.55462137116,60049
1646.52722315703,57862
1649.49552236647,55686
1652.45951899949,53725
1655.41921305607,51203
1658.37460453623,49580
1661.32569343995,47744
1664.27247976724,46161
1668.19483530697,43610
1671.13158228926,42107
1674.06402669512,40269
1676.99216852456,38187
1679.91600777756,36220
1682.83554445413,33379
1685.75077855427,30490
1688.66171007799,27119
1691.56833902527,24336
1695.43715139165,20480
1698.33374099393,17611
1701.22602801978,14944
##END=
