##TITLE=Column 1
##JCAMP-DX=4.24
##DATA TYPE=INFRARED SPECTRUM
##Method:,Column 1,Built-In Reference,,,Model Name,NIR-S-G1
##Host Date-Time:,27/10/20 @ 13:12:12,13/5/20 @ 16:0:36,,,GUI Version,3.6.4
##Header Version:,1,1,,,Tiva Version,2.4.4.0
##System Temp (C):,48.21,34.7,,,DLPC Version,2.2.0
##Detector Temp (C),0,0,,,UUID,DE:67:0C:88:67:4B:68:21
##Humidity (%):,29.91,35.27,,,Main Board Version,D
##Lamp PD:,1920,1767
##Shift Vector Coefficients:,-7.40266672958336,0.0577935962102471,-0.000112288131265282
##Pixel to Wavelength Coefficients:,1779.07784909224,-0.923938295271985,-0.000239032023878199
##Serial Number:,947R033,947R033
##Scan Config Name:,Column 1,SystemTest
##Scan Config Type:,Column,Column
##Start wavelength (nm):,900,900
##End wavelength (nm):,1700,1700
##Pattern Pixel Width (nm):,7.03,7.03
##Exposure (ms):,0.635,0.635
##Digital Resolution:,228,228
##NPOINTS=228
##Num Repeats:,6,30
##PGA Gain:,64,64
##Total Measurement Time in sec:,2.0956783
##XUNITS=Wavelength(nm)
##YUNITS=Intensity
##FIRSTX=901.938585242429
##LASTX=1701.22602801978
##PEAK TABLE=X+(Y..Y)
901.938585242429,11302
905.839109344998,12525
909.735330871137,13956
913.627249820846,15673
917.514866194126,17124
921.398179990975,17810
925.277191211395,20954
929.151899855385,22822
933.022305922945,25680
938.17615444969,29608
942.036521172247,31904
945.892585318375,33554
949.744346888073,35788
953.59180588134,37550
957.434962298178,39083
961.273816138587,40489
965.108367402565,41921
968.938616090114,43636
974.03892144351,46356
977.859130786056,47855
981.675037552172,49454
985.486641741858,51262
989.293943355114,52596
993.096942391941,53935
996.895638852337,55065
1000.6900327363,56254
1004.48012404384,56782
1009.52688622389,57897
1013.30693818642,58556
1017.08268757253,59281
1020.8541343822,60164
1024.62127861545,60119
1028.38412027226,60465
1032.14265935265,60326
1035.8968958566,61048
1039.64682978413,61103
1044.64004879083,60980
1048.37994337335,60726
1052.11553537944,60890
1055.84682480911,60888
1059.57381166234,60145
1063.29649593914,60410
1067.01487763952,59932
1070.72895676346,59553
1074.43873331097,59853
1079.37840914432,59799
1083.07814634683,60135
1086.77358097292,60181
1090.46471302257,60125
1094.15154249579,60522
1097.83406939258,61132
1101.51229371294,61353
1105.18621545688,61499
1108.85583462438,61767
1113.74196728438,62956
1117.40154710688,63137
1121.05682435295,63932
1124.70779902259,64786
1128.3544711158,65242
1131.99684063258,65896
1135.63490757293,66327
1139.26867193685,67025
1142.89813372434,67299
1147.73072321099,68217
1151.35014565348,68767
1154.96526551954,69517
1158.57608280917,70403
1162.18259752237,70616
1165.78480965914,71637
1169.38271921947,71755
1172.97632620338,72261
1176.56563061086,73085
1181.34467692417,73658
1184.92394198664,74495
1188.49890447269,75704
1192.06956438231,75804
1195.63592171549,77024
1199.19797647225,77455
1202.75572865258,78878
1206.30917825648,79604
1209.85832528395,80274
1214.5838284239,81749
1218.12293610637,82864
1221.6577412124,83470
1225.18824374201,84268
1228.71444369518,85441
1232.23634107193,86146
1235.75393587224,87081
1239.26722809613,88152
1242.77621774359,89015
1247.44817771019,90205
1250.94712801265,91500
1254.44177573867,92534
1257.93212088826,93355
1261.41816346143,94478
1264.89990345816,95544
1268.37734087847,96054
1271.85047572234,96869
1275.31930798978,97598
1279.93772478304,98399
1283.39651770548,99244
1286.8510080515,100022
1290.30119582108,100384
1293.74708101423,101184
1297.18866363095,101545
1300.62594367125,101894
1304.05892113511,102278
1307.48759602254,103021
1312.05246964245,103394
1315.47110518488,103430
1318.88543815088,103965
1322.29546854045,104530
1325.70119635359,104195
1329.10262159031,104605
1332.49974425059,105194
1335.89256433444,104962
1339.28108184186,105023
1343.79241228842,104910
1347.17089045084,104853
1350.54506603683,104521
1353.91493904639,104875
1357.28050947952,104246
1360.64177733622,104056
1363.99874261649,104371
1367.35140532033,104525
1370.69976544774,104311
1375.15755272095,103821
1378.49587350336,103623
1381.82989170933,102315
1385.15960733888,101996
1388.485020392,101641
1391.80613086869,101228
1395.12293876895,100698
1398.43544409277,100115
1401.74364684017,100002
1406.14789094004,99202
1409.44605434243,99235
1412.7399151684,98340
1416.02947341793,97972
1419.31472909104,97844
1422.59568218772,97603
1425.87233270796,97663
1429.14468065178,97225
1432.41272601917,97043
1436.76342694568,96930
1440.02143296807,97183
1443.27513641402,96888
1446.52453728354,96438
1449.76963557664,96518
1453.0104312933,96343
1456.24692443354,96077
1459.47911499734,95336
1462.70700298472,95236
1467.00416073789,94514
1470.22200938026,94299
1473.4355554462,93714
1476.64479893571,93068
1479.8497398488,92588
1483.05037818545,91483
1486.24671394567,91386
1489.43874712947,90397
1492.62647773683,89533
1496.87009231665,88751
1500.04778357901,88270
1503.22117226494,87428
1506.39025837444,86694
1509.55504190751,85606
1512.71552286416,85333
1515.87170124437,84622
1519.02357704815,84385
1522.1711502755,83137
1526.36122168197,82363
1529.49875556432,81802
1532.63198687024,80659
1535.76091559973,79777
1538.88554175279,79263
1542.00586532942,78115
1545.12188632962,77361
1548.23360475339,75992
1551.34102060073,75258
1555.47754883385,74293
1558.57492533619,73283
1561.6679992621,72013
1564.75677061158,71214
1567.84123938463,69374
1570.92140558125,67919
1573.99726920143,66957
1577.06883024519,65555
1580.13608871252,64249
1584.21907377229,62733
1587.27629289462,61358
1590.32920944052,60271
1593.37782340998,58411
1596.42213480302,57699
1599.46214361963,56459
1602.49784985981,55137
1605.52925352355,53477
1608.55635461087,52432
1612.58579649729,50816
1615.60285823961,49347
1618.61561740549,48339
1621.62407399495,46541
1624.62822800797,45591
1627.62807944457,44088
1630.62362830474,42894
1633.61487458847,41806
1636.60181829578,40886
1640.57771700885,39014
1643.55462137116,37871
1646.52722315703,36449
1649.49552236647,35306
1652.45951899949,33845
1655.41921305607,32692
1658.37460453623,31319
1661.32569343995,30475
1664.27247976724,28869
1668.19483530697,27684
1671.13158228926,26384
1674.06402669512,25424
1676.99216852456,24229
1679.91600777756,22493
1682.83554445413,20991
1685.75077855427,19223
1688.66171007799,17282
1691.56833902527,15186
1695.43715139165,12663
1698.33374099393,10810
1701.22602801978,9390
##END=
