##TITLE=Column 1
##JCAMP-DX=4.24
##DATA TYPE=INFRARED SPECTRUM
##Method:,Column 1,Built-In Reference,,,Model Name,NIR-S-G1
##Host Date-Time:,27/10/20 @ 13:11:34,13/5/20 @ 16:0:36,,,GUI Version,3.6.4
##Header Version:,1,1,,,Tiva Version,2.4.4.0
##System Temp (C):,47.86,34.7,,,DLPC Version,2.2.0
##Detector Temp (C),0,0,,,UUID,DE:67:0C:88:67:4B:68:21
##Humidity (%):,30.4,35.27,,,Main Board Version,D
##Lamp PD:,1920,1767
##Shift Vector Coefficients:,-7.40266672958336,0.0577935962102471,-0.000112288131265282
##Pixel to Wavelength Coefficients:,1779.07784909224,-0.923938295271985,-0.000239032023878199
##Serial Number:,947R033,947R033
##Scan Config Name:,Column 1,SystemTest
##Scan Config Type:,Column,Column
##Start wavelength (nm):,900,900
##End wavelength (nm):,1700,1700
##Pattern Pixel Width (nm):,7.03,7.03
##Exposure (ms):,0.635,0.635
##Digital Resolution:,228,228
##NPOINTS=228
##Num Repeats:,6,30
##PGA Gain:,64,64
##Total Measurement Time in sec:,2.0488933
##XUNITS=Wavelength(nm)
##YUNITS=Intensity
##FIRSTX=901.938585242429
##LASTX=1701.22602801978
##PEAK TABLE=X+(Y..Y)
901.938585242429,18653
905.839109344998,20563
909.735330871137,21990
913.627249820846,24159
917.514866194126,26728
921.398179990975,29709
925.277191211395,33260
929.151899855385,37463
933.022305922945,42052
938.17615444969,47735
942.036521172247,51751
945.892585318375,55007
949.744346888073,58118
953.59180588134,60731
957.434962298178,63976
961.273816138587,66014
965.108367402565,68673
968.938616090114,71564
974.03892144351,75643
977.859130786056,78223
981.675037552172,81383
985.486641741858,84540
989.293943355114,87360
993.096942391941,89734
996.895638852337,91055
1000.6900327363,92531
1004.48012404384,94202
1009.52688622389,96453
1013.30693818642,97921
1017.08268757253,98766
1020.8541343822,100251
1024.62127861545,100457
1028.38412027226,101369
1032.14265935265,101555
1035.8968958566,101534
1039.64682978413,101991
1044.64004879083,102107
1048.37994337335,102082
1052.11553537944,102171
1055.84682480911,101986
1059.57381166234,101305
1063.29649593914,100959
1067.01487763952,100665
1070.72895676346,100649
1074.43873331097,100347
1079.37840914432,100997
1083.07814634683,100543
1086.77358097292,100386
1090.46471302257,100723
1094.15154249579,100878
1097.83406939258,101347
1101.51229371294,101555
1105.18621545688,102188
1108.85583462438,102118
1113.74196728438,103555
1117.40154710688,104394
1121.05682435295,104862
1124.70779902259,105808
1128.3544711158,106177
1131.99684063258,107092
1135.63490757293,108015
1139.26867193685,108895
1142.89813372434,110079
1147.73072321099,111029
1151.35014565348,111841
1154.96526551954,112501
1158.57608280917,113919
1162.18259752237,114581
1165.78480965914,115597
1169.38271921947,116415
1172.97632620338,117591
1176.56563061086,118206
1181.34467692417,119828
1184.92394198664,121291
1188.49890447269,122473
1192.06956438231,124152
1195.63592171549,125915
1199.19797647225,127140
1202.75572865258,129372
1206.30917825648,130636
1209.85832528395,132740
1214.5838284239,134945
1218.12293610637,136669
1221.6577412124,138662
1225.18824374201,139622
1228.71444369518,141932
1232.23634107193,143460
1235.75393587224,144941
1239.26722809613,147106
1242.77621774359,148253
1247.44817771019,151212
1250.94712801265,152632
1254.44177573867,154198
1257.93212088826,156272
1261.41816346143,157807
1264.89990345816,159325
1268.37734087847,160023
1271.85047572234,161627
1275.31930798978,163178
1279.93772478304,164884
1283.39651770548,166146
1286.8510080515,166528
1290.30119582108,167828
1293.74708101423,168521
1297.18866363095,169871
1300.62594367125,170156
1304.05892113511,171251
1307.48759602254,171563
1312.05246964245,172232
1315.47110518488,172950
1318.88543815088,172894
1322.29546854045,173908
1325.70119635359,173957
1329.10262159031,173918
1332.49974425059,174392
1335.89256433444,174534
1339.28108184186,174406
1343.79241228842,174139
1347.17089045084,174093
1350.54506603683,173696
1353.91493904639,172704
1357.28050947952,172713
1360.64177733622,171976
1363.99874261649,172573
1367.35140532033,172012
1370.69976544774,171627
1375.15755272095,171102
1378.49587350336,170086
1381.82989170933,168427
1385.15960733888,167306
1388.485020392,166621
1391.80613086869,165798
1395.12293876895,165084
1398.43544409277,163999
1401.74364684017,162767
1406.14789094004,161774
1409.44605434243,161087
1412.7399151684,159698
1416.02947341793,159115
1419.31472909104,158365
1422.59568218772,157802
1425.87233270796,157391
1429.14468065178,157417
1432.41272601917,156786
1436.76342694568,156196
1440.02143296807,155794
1443.27513641402,155931
1446.52453728354,155322
1449.76963557664,154854
1453.0104312933,154684
1456.24692443354,153737
1459.47911499734,153085
1462.70700298472,152689
1467.00416073789,151738
1470.22200938026,150964
1473.4355554462,150132
1476.64479893571,148816
1479.8497398488,148052
1483.05037818545,146784
1486.24671394567,145110
1489.43874712947,144021
1492.62647773683,142485
1496.87009231665,141238
1500.04778357901,139539
1503.22117226494,137982
1506.39025837444,136802
1509.55504190751,136161
1512.71552286416,134441
1515.87170124437,132942
1519.02357704815,132483
1522.1711502755,130742
1526.36122168197,128815
1529.49875556432,127668
1532.63198687024,126534
1535.76091559973,124297
1538.88554175279,123616
1542.00586532942,122386
1545.12188632962,120161
1548.23360475339,119020
1551.34102060073,116939
1555.47754883385,114597
1558.57492533619,113482
1561.6679992621,110749
1564.75677061158,109396
1567.84123938463,106754
1570.92140558125,104477
1573.99726920143,102214
1577.06883024519,100144
1580.13608871252,97870
1584.21907377229,95076
1587.27629289462,93701
1590.32920944052,91312
1593.37782340998,89353
1596.42213480302,87475
1599.46214361963,85194
1602.49784985981,83420
1605.52925352355,81642
1608.55635461087,79516
1612.58579649729,76633
1615.60285823961,74997
1618.61561740549,72568
1621.62407399495,71061
1624.62822800797,68758
1627.62807944457,66978
1630.62362830474,65200
1633.61487458847,62728
1636.60181829578,61409
1640.57771700885,59070
1643.55462137116,56358
1646.52722315703,54922
1649.49552236647,53412
1652.45951899949,51978
1655.41921305607,50035
1658.37460453623,48188
1661.32569343995,46121
1664.27247976724,44366
1668.19483530697,42119
1671.13158228926,40266
1674.06402669512,39013
1676.99216852456,36821
1679.91600777756,34513
1682.83554445413,31956
1685.75077855427,29863
1688.66171007799,26255
1691.56833902527,23866
1695.43715139165,19592
1698.33374099393,16758
1701.22602801978,14460
##END=
