##TITLE=Column 1
##JCAMP-DX=4.24
##DATA TYPE=INFRARED SPECTRUM
##Method:,Column 1,Built-In Reference,,,Model Name,NIR-X-XX
##Host Date-Time:,27/10/20 @ 15:0:57,9/7/19 @ 16:39:9,,,GUI Version,2.4.4
##Header Version:,1,1,,,Tiva Version,2.1.0.67
##System Temp (C):,49.52,27.52,,,DLPC Version,2.0.0
##Detector Temp (C),0,0,,,UUID,DE:67:0C:88:67:19:47:21
##Humidity (%):,14.23,73.2,,,Main Board Version,D
##Lamp PD:,2672,2274
##Shift Vector Coefficients:,-6.85384978732833,0.0551332794684546,-0.000110731550088635
##Pixel to Wavelength Coefficients:,1790.66412099084,-0.917492857141292,-0.000239200785115314
##Serial Number:,925R021,925R021
##Scan Config Name:,Column 1,SystemTest
##Scan Config Type:,Column,Column
##Start wavelength (nm):,900,900
##End wavelength (nm):,1700,1700
##Pattern Pixel Width (nm):,7.03,7.03
##Exposure (ms):,0.635,0.635
##Digital Resolution:,228,228
##NPOINTS=228
##Num Repeats:,6,30
##PGA Gain:,64,64
##Total Measurement Time in sec:,1.8131482
##XUNITS=Wavelength(nm)
##YUNITS=Intensity
##FIRSTX=901.630473432251
##LASTX=1700.8619821734
##PEAK TABLE=X+(Y..Y)
901.630473432251,15009
905.531115772228,16470
909.427452498074,17513
913.319483609787,18994
917.207209107368,20973
921.090628990817,23249
924.969743260134,25979
930.13519799724,30390
934.004265833582,33897
937.869028055792,37523
941.72948466387,40819
945.585635657816,43975
949.43748103763,46678
953.285020803312,49029
957.128254954862,51317
960.967183492279,53627
966.07905725352,56688
969.907939357962,58400
973.732515848273,60434
977.552786724452,62363
981.368751986498,64538
985.180411634413,65741
988.987765668195,67450
992.790814087846,68346
996.589556893364,69449
1001.64784967874,70667
1005.43654605128,71351
1009.22093680969,71985
1013.00102195397,72395
1016.77680148412,72406
1020.54827540013,72671
1024.31544370202,72856
1028.07830638977,73021
1031.83686346339,72567
1036.8415752729,72295
1040.59008591354,72070
1044.33429094005,71799
1048.07419035243,71631
1051.80978415068,70908
1055.5410723348,71160
1059.26805490478,70807
1062.99073186063,70231
1066.70910320235,69931
1071.66023403599,70002
1075.36855894474,70167
1079.07257823935,69749
1082.77229191983,70077
1086.46769998618,70183
1090.1588024384,70750
1093.84559927648,70620
1097.52809050043,71046
1101.20627611025,71402
1106.10382596803,71742
1109.77196514487,72344
1113.43579870759,73257
1117.09532665617,73551
1120.75054899062,73575
1124.40146571093,74219
1128.04807681712,74712
1131.69038230917,75122
1135.32838218709,75655
1140.172351069,76264
1143.80030451395,76732
1147.42395234476,77541
1151.04329456145,78183
1154.658331164,78862
1158.26906215241,79329
1161.8754875267,80008
1165.47760728685,81038
1169.07542143287,82019
1173.86580933892,83055
1177.45357705197,84315
1181.03703915088,84947
1184.61619563566,86282
1188.19104650631,87315
1191.76159176283,89241
1195.32783140522,90423
1198.88976543347,91773
1202.44739384759,93558
1207.18420077777,95716
1210.73178275892,97375
1214.27505912594,98735
1217.81402987882,100772
1221.34869501757,102060
1224.87905454219,103544
1228.40510845267,104966
1231.92685674903,106589
1235.44429943125,107793
1240.12752538557,109974
1243.63492163481,111177
1247.13801226993,112677
1250.63679729091,113404
1254.13127669776,114771
1257.62145049048,116401
1261.10731866907,118643
1264.58888123353,120158
1268.06613818385,122344
1272.6957831623,124481
1276.16299367965,125632
1279.62589858286,127543
1283.08449787195,128527
1286.5387915469,129018
1289.98877960772,130553
1293.43446205441,131267
1296.87583888696,132058
1300.31291010539,133115
1304.88897410797,133742
1308.31599889342,134115
1311.73871806474,134320
1315.15713162192,134974
1318.57123956497,134982
1321.98104189389,135015
1325.38653860868,135038
1328.78772970934,135136
1332.18461519586,135293
1336.70709822258,135025
1340.09393727613,135088
1343.47647071555,134603
1346.85469854083,134460
1350.22862075199,133926
1353.59823734901,133115
1356.9635483319,132045
1360.32455370065,131386
1363.68125345528,131134
1368.15015550613,130496
1371.49680882778,129805
1374.8391565353,128917
1378.17719862868,127758
1381.51093510794,126073
1384.84036597306,124628
1388.16549122405,123482
1391.48631086091,122388
1394.80282488363,121257
1399.21814595862,120880
1402.52461354837,120478
1405.82677552399,119701
1409.12463188548,119813
1412.41818263283,119244
1415.70742776605,119116
1418.99236728514,118867
1422.2730011901,119028
1425.54932948093,119052
1429.91106958005,119122
1433.1773514379,119117
1436.43932768162,118903
1439.6969983112,119337
1442.95036332666,119291
1446.19942272798,119362
1449.44417651517,119164
1452.68462468823,119363
1456.99852463033,119041
1460.22892637041,118706
1463.45502249637,118062
1466.67681300819,118184
1469.89429790587,117976
1473.10747718943,117084
1476.31635085885,117005
1479.52091891415,116240
1482.72118135531,115622
1486.98150032154,114859
1490.17171632972,114220
1493.35762672377,113424
1496.53923150369,112699
1499.71653066948,111686
1502.88952422114,111422
1506.05821215866,110749
1509.22259448206,110096
1512.38267119132,109228
1516.58940918168,107807
1519.73943945797,107678
1522.88516412012,106545
1526.02658316814,105526
1529.16369660203,105053
1532.29650442179,103753
1535.42500662741,103118
1538.54920321891,102366
1541.66909419627,100880
1545.82225121076,99786
1548.93209575515,98613
1552.0376346854,97605
1555.13886800153,95955
1558.23579570352,95644
1561.32841779137,93808
1564.4167342651,92578
1567.50074512469,91477
1570.58045037016,89884
1574.68002640879,88247
1577.74968522127,86566
1580.81503841963,85166
1583.87608600385,83425
1586.93282797394,82252
1589.9852643299,80663
1593.03339507173,79117
1596.07722019942,77246
1599.11673971298,76263
1603.16273477575,74219
1606.19220785634,72338
1609.21737532279,70704
1612.23823717512,69007
1615.25479341331,67794
1618.26704403737,66315
1621.27498904729,65177
1624.27862844309,63610
1627.27796222475,61691
1631.27037631165,60096
1634.25966366034,58169
1637.2446453949,56586
1640.22532151532,54922
1643.20169202161,53123
1646.17375691377,51854
1649.1415161918,49901
1652.10496985569,47650
1655.06411790546,45843
1659.00295101649,44430
1661.95205263328,42843
1664.89684863594,41857
1667.83733902446,40141
1670.77352379886,38841
1673.70540295912,37800
1676.63297650524,35824
1679.55624443724,33653
1682.4752067551,31228
1686.36045889027,27992
1689.26937477516,25013
1692.17398504592,22335
1695.07428970255,19956
1697.97028874504,16525
1700.8619821734,14429
##END=
