##TITLE=Column 1
##JCAMP-DX=4.24
##DATA TYPE=INFRARED SPECTRUM
##Method:,Column 1,Built-In Reference,,,Model Name,NIR-X-XX
##Host Date-Time:,27/10/20 @ 15:0:53,9/7/19 @ 16:39:9,,,GUI Version,2.4.4
##Header Version:,1,1,,,Tiva Version,2.1.0.67
##System Temp (C):,49.51,27.52,,,DLPC Version,2.0.0
##Detector Temp (C),0,0,,,UUID,DE:67:0C:88:67:19:47:21
##Humidity (%):,14.23,73.2,,,Main Board Version,D
##Lamp PD:,2671,2274
##Shift Vector Coefficients:,-6.85384978732833,0.0551332794684546,-0.000110731550088635
##Pixel to Wavelength Coefficients:,1790.66412099084,-0.917492857141292,-0.000239200785115314
##Serial Number:,925R021,925R021
##Scan Config Name:,Column 1,SystemTest
##Scan Config Type:,Column,Column
##Start wavelength (nm):,900,900
##End wavelength (nm):,1700,1700
##Pattern Pixel Width (nm):,7.03,7.03
##Exposure (ms):,0.635,0.635
##Digital Resolution:,228,228
##NPOINTS=228
##Num Repeats:,6,30
##PGA Gain:,64,64
##Total Measurement Time in sec:,1.7951813
##XUNITS=Wavelength(nm)
##YUNITS=Intensity
##FIRSTX=901.630473432251
##LASTX=1700.8619821734
##PEAK TABLE=X+(Y..Y)
901.630473432251,16075
905.531115772228,17296
909.427452498074,18399
913.319483609787,19869
917.207209107368,21801
921.090628990817,23908
924.969743260134,26564
930.13519799724,30525
934.004265833582,34633
937.869028055792,37941
941.72948466387,41389
945.585635657816,43908
949.43748103763,46244
953.285020803312,49061
957.128254954862,51292
960.967183492279,53439
966.07905725352,56668
969.907939357962,58704
973.732515848273,60404
977.552786724452,62296
981.368751986498,63790
985.180411634413,66032
988.987765668195,67132
992.790814087846,68193
996.589556893364,69543
1001.64784967874,70819
1005.43654605128,71000
1009.22093680969,71643
1013.00102195397,72210
1016.77680148412,72658
1020.54827540013,72734
1024.31544370202,72966
1028.07830638977,72843
1031.83686346339,72878
1036.8415752729,72238
1040.59008591354,72578
1044.33429094005,72355
1048.07419035243,72245
1051.80978415068,72158
1055.5410723348,71886
1059.26805490478,71720
1062.99073186063,71621
1066.70910320235,71232
1071.66023403599,71400
1075.36855894474,71382
1079.07257823935,71784
1082.77229191983,72059
1086.46769998618,72245
1090.1588024384,72917
1093.84559927648,73018
1097.52809050043,73447
1101.20627611025,74001
1106.10382596803,74321
1109.77196514487,75076
1113.43579870759,75758
1117.09532665617,76435
1120.75054899062,76884
1124.40146571093,77267
1128.04807681712,77941
1131.69038230917,78077
1135.32838218709,78776
1140.172351069,79723
1143.80030451395,80705
1147.42395234476,80738
1151.04329456145,81795
1154.658331164,82451
1158.26906215241,82834
1161.8754875267,84052
1165.47760728685,84417
1169.07542143287,85508
1173.86580933892,86792
1177.45357705197,87327
1181.03703915088,88675
1184.61619563566,89912
1188.19104650631,90642
1191.76159176283,91874
1195.32783140522,93407
1198.88976543347,94479
1202.44739384759,96567
1207.18420077777,98126
1210.73178275892,99411
1214.27505912594,101184
1217.81402987882,102542
1221.34869501757,103940
1224.87905454219,105948
1228.40510845267,107228
1231.92685674903,108779
1235.44429943125,110157
1240.12752538557,111870
1243.63492163481,113143
1247.13801226993,114357
1250.63679729091,115522
1254.13127669776,117024
1257.62145049048,118330
1261.10731866907,120702
1264.58888123353,122318
1268.06613818385,124176
1272.6957831623,126807
1276.16299367965,128250
1279.62589858286,129500
1283.08449787195,130444
1286.5387915469,131415
1289.98877960772,132723
1293.43446205441,133435
1296.87583888696,134470
1300.31291010539,135296
1304.88897410797,135752
1308.31599889342,136341
1311.73871806474,136555
1315.15713162192,136972
1318.57123956497,137218
1321.98104189389,137115
1325.38653860868,137423
1328.78772970934,137223
1332.18461519586,136917
1336.70709822258,136940
1340.09393727613,136866
1343.47647071555,136329
1346.85469854083,136212
1350.22862075199,135467
1353.59823734901,134570
1356.9635483319,134339
1360.32455370065,133598
1363.68125345528,132868
1368.15015550613,131899
1371.49680882778,131288
1374.8391565353,130502
1378.17719862868,129087
1381.51093510794,128087
1384.84036597306,126519
1388.16549122405,125478
1391.48631086091,124078
1394.80282488363,123327
1399.21814595862,122092
1402.52461354837,122059
1405.82677552399,121458
1409.12463188548,121288
1412.41818263283,121091
1415.70742776605,120861
1418.99236728514,120847
1422.2730011901,120559
1425.54932948093,120609
1429.91106958005,120972
1433.1773514379,120707
1436.43932768162,121415
1439.6969983112,121220
1442.95036332666,121691
1446.19942272798,121427
1449.44417651517,121166
1452.68462468823,121423
1456.99852463033,121068
1460.22892637041,120703
1463.45502249637,120475
1466.67681300819,120042
1469.89429790587,119896
1473.10747718943,119736
1476.31635085885,119126
1479.52091891415,118665
1482.72118135531,117974
1486.98150032154,117309
1490.17171632972,116716
1493.35762672377,116252
1496.53923150369,115513
1499.71653066948,114606
1502.88952422114,114256
1506.05821215866,113640
1509.22259448206,112687
1512.38267119132,111820
1516.58940918168,110269
1519.73943945797,110134
1522.88516412012,108920
1526.02658316814,108067
1529.16369660203,107015
1532.29650442179,106310
1535.42500662741,104727
1538.54920321891,103744
1541.66909419627,102698
1545.82225121076,101673
1548.93209575515,100186
1552.0376346854,98940
1555.13886800153,97789
1558.23579570352,96489
1561.32841779137,95253
1564.4167342651,93861
1567.50074512469,92172
1570.58045037016,91202
1574.68002640879,88382
1577.74968522127,87430
1580.81503841963,85834
1583.87608600385,83779
1586.93282797394,82678
1589.9852643299,81035
1593.03339507173,78847
1596.07722019942,77405
1599.11673971298,75838
1603.16273477575,73835
1606.19220785634,72306
1609.21737532279,70648
1612.23823717512,68680
1615.25479341331,67661
1618.26704403737,66020
1621.27498904729,63971
1624.27862844309,62695
1627.27796222475,61049
1631.27037631165,58970
1634.25966366034,57085
1637.2446453949,55539
1640.22532151532,53496
1643.20169202161,51519
1646.17375691377,50197
1649.1415161918,48132
1652.10496985569,46478
1655.06411790546,45132
1659.00295101649,42919
1661.95205263328,41427
1664.89684863594,39942
1667.83733902446,38674
1670.77352379886,37492
1673.70540295912,36028
1676.63297650524,34240
1679.55624443724,32303
1682.4752067551,30061
1686.36045889027,27193
1689.26937477516,23977
1692.17398504592,21098
1695.07428970255,18534
1697.97028874504,16044
1700.8619821734,13614
##END=
