##TITLE=Column 1
##JCAMP-DX=4.24
##DATA TYPE=INFRARED SPECTRUM
##Method:,Column 1,Built-In Reference,,,Model Name,NIR-X-XX
##Host Date-Time:,27/10/20 @ 15:0:9,9/7/19 @ 16:39:9,,,GUI Version,2.4.4
##Header Version:,1,1,,,Tiva Version,2.1.0.67
##System Temp (C):,49.21,27.52,,,DLPC Version,2.0.0
##Detector Temp (C),0,0,,,UUID,DE:67:0C:88:67:19:47:21
##Humidity (%):,14.43,73.2,,,Main Board Version,D
##Lamp PD:,2669,2274
##Shift Vector Coefficients:,-6.85384978732833,0.0551332794684546,-0.000110731550088635
##Pixel to Wavelength Coefficients:,1790.66412099084,-0.917492857141292,-0.000239200785115314
##Serial Number:,925R021,925R021
##Scan Config Name:,Column 1,SystemTest
##Scan Config Type:,Column,Column
##Start wavelength (nm):,900,900
##End wavelength (nm):,1700,1700
##Pattern Pixel Width (nm):,7.03,7.03
##Exposure (ms):,0.635,0.635
##Digital Resolution:,228,228
##NPOINTS=228
##Num Repeats:,6,30
##PGA Gain:,64,64
##Total Measurement Time in sec:,1.8141559
##XUNITS=Wavelength(nm)
##YUNITS=Intensity
##FIRSTX=901.630473432251
##LASTX=1700.8619821734
##PEAK TABLE=X+(Y..Y)
901.630473432251,27579
905.531115772228,29983
909.427452498074,32131
913.319483609787,34544
917.207209107368,37668
921.090628990817,41290
924.969743260134,45723
930.13519799724,52900
934.004265833582,58754
937.869028055792,64731
941.72948466387,69848
945.585635657816,75055
949.43748103763,79215
953.285020803312,82776
957.128254954862,85976
960.967183492279,89471
966.07905725352,93142
969.907939357962,96002
973.732515848273,98830
977.552786724452,101453
981.368751986498,104186
985.180411634413,106068
988.987765668195,108174
992.790814087846,109716
996.589556893364,111536
1001.64784967874,113293
1005.43654605128,114794
1009.22093680969,115309
1013.00102195397,116055
1016.77680148412,116534
1020.54827540013,116776
1024.31544370202,116713
1028.07830638977,116531
1031.83686346339,116976
1036.8415752729,117043
1040.59008591354,116719
1044.33429094005,116504
1048.07419035243,116567
1051.80978415068,116551
1055.5410723348,116738
1059.26805490478,116426
1062.99073186063,117085
1066.70910320235,117005
1071.66023403599,117586
1075.36855894474,118088
1079.07257823935,118875
1082.77229191983,119440
1086.46769998618,120114
1090.1588024384,121075
1093.84559927648,122400
1097.52809050043,122681
1101.20627611025,124070
1106.10382596803,125484
1109.77196514487,126757
1113.43579870759,127930
1117.09532665617,129032
1120.75054899062,129804
1124.40146571093,130932
1128.04807681712,131350
1131.69038230917,132582
1135.32838218709,133849
1140.172351069,135816
1143.80030451395,136990
1147.42395234476,138472
1151.04329456145,139653
1154.658331164,140906
1158.26906215241,142502
1161.8754875267,144092
1165.47760728685,145802
1169.07542143287,147287
1173.86580933892,149225
1177.45357705197,150868
1181.03703915088,153054
1184.61619563566,154983
1188.19104650631,157525
1191.76159176283,159972
1195.32783140522,162454
1198.88976543347,165030
1202.44739384759,167593
1207.18420077777,170697
1210.73178275892,173606
1214.27505912594,175830
1217.81402987882,178640
1221.34869501757,181025
1224.87905454219,183133
1228.40510845267,185759
1231.92685674903,187913
1235.44429943125,190181
1240.12752538557,193097
1243.63492163481,194975
1247.13801226993,196447
1250.63679729091,198033
1254.13127669776,199920
1257.62145049048,202734
1261.10731866907,205937
1264.58888123353,208649
1268.06613818385,211142
1272.6957831623,215253
1276.16299367965,216898
1279.62589858286,219273
1283.08449787195,221168
1286.5387915469,222698
1289.98877960772,224305
1293.43446205441,225650
1296.87583888696,226746
1300.31291010539,227673
1304.88897410797,229158
1308.31599889342,229579
1311.73871806474,230633
1315.15713162192,230873
1318.57123956497,231512
1321.98104189389,231384
1325.38653860868,231255
1328.78772970934,231296
1332.18461519586,231089
1336.70709822258,231415
1340.09393727613,230832
1343.47647071555,230069
1346.85469854083,229395
1350.22862075199,228562
1353.59823734901,227396
1356.9635483319,226269
1360.32455370065,224983
1363.68125345528,223994
1368.15015550613,222661
1371.49680882778,221838
1374.8391565353,220103
1378.17719862868,218307
1381.51093510794,215632
1384.84036597306,213233
1388.16549122405,211359
1391.48631086091,209241
1394.80282488363,207508
1399.21814595862,205733
1402.52461354837,205008
1405.82677552399,204380
1409.12463188548,204236
1412.41818263283,203419
1415.70742776605,202862
1418.99236728514,203258
1422.2730011901,202666
1425.54932948093,203082
1429.91106958005,203175
1433.1773514379,202945
1436.43932768162,203376
1439.6969983112,203254
1442.95036332666,203784
1446.19942272798,203933
1449.44417651517,203974
1452.68462468823,203747
1456.99852463033,203726
1460.22892637041,203145
1463.45502249637,202550
1466.67681300819,201911
1469.89429790587,201576
1473.10747718943,201066
1476.31635085885,199497
1479.52091891415,199090
1482.72118135531,197941
1486.98150032154,196798
1490.17171632972,195635
1493.35762672377,195298
1496.53923150369,193622
1499.71653066948,192350
1502.88952422114,191324
1506.05821215866,190520
1509.22259448206,188866
1512.38267119132,187180
1516.58940918168,185528
1519.73943945797,183937
1522.88516412012,182253
1526.02658316814,180405
1529.16369660203,178910
1532.29650442179,176914
1535.42500662741,175074
1538.54920321891,173230
1541.66909419627,171349
1545.82225121076,169029
1548.93209575515,166808
1552.0376346854,164334
1555.13886800153,162264
1558.23579570352,160143
1561.32841779137,157611
1564.4167342651,154792
1567.50074512469,152475
1570.58045037016,149941
1574.68002640879,145991
1577.74968522127,143059
1580.81503841963,140366
1583.87608600385,137265
1586.93282797394,134018
1589.9852643299,131364
1593.03339507173,128114
1596.07722019942,125161
1599.11673971298,122206
1603.16273477575,118443
1606.19220785634,115343
1609.21737532279,112775
1612.23823717512,109889
1615.25479341331,107130
1618.26704403737,103923
1621.27498904729,101385
1624.27862844309,98643
1627.27796222475,95551
1631.27037631165,92096
1634.25966366034,89215
1637.2446453949,86212
1640.22532151532,82714
1643.20169202161,80068
1646.17375691377,76524
1649.1415161918,73502
1652.10496985569,70080
1655.06411790546,67183
1659.00295101649,63830
1661.95205263328,61540
1664.89684863594,59956
1667.83733902446,58300
1670.77352379886,56360
1673.70540295912,54748
1676.63297650524,52138
1679.55624443724,49118
1682.4752067551,46070
1686.36045889027,40898
1689.26937477516,37426
1692.17398504592,32794
1695.07428970255,28855
1697.97028874504,24787
1700.8619821734,21080
##END=
