##TITLE=Column 1
##JCAMP-DX=4.24
##DATA TYPE=INFRARED SPECTRUM
##Method:,Column 1,Built-In Reference,,,Model Name,NIR-X-XX
##Host Date-Time:,27/10/20 @ 15:1:0,9/7/19 @ 16:39:9,,,GUI Version,2.4.4
##Header Version:,1,1,,,Tiva Version,2.1.0.67
##System Temp (C):,49.54,27.52,,,DLPC Version,2.0.0
##Detector Temp (C),0,0,,,UUID,DE:67:0C:88:67:19:47:21
##Humidity (%):,14.23,73.2,,,Main Board Version,D
##Lamp PD:,2673,2274
##Shift Vector Coefficients:,-6.85384978732833,0.0551332794684546,-0.000110731550088635
##Pixel to Wavelength Coefficients:,1790.66412099084,-0.917492857141292,-0.000239200785115314
##Serial Number:,925R021,925R021
##Scan Config Name:,Column 1,SystemTest
##Scan Config Type:,Column,Column
##Start wavelength (nm):,900,900
##End wavelength (nm):,1700,1700
##Pattern Pixel Width (nm):,7.03,7.03
##Exposure (ms):,0.635,0.635
##Digital Resolution:,228,228
##NPOINTS=228
##Num Repeats:,6,30
##PGA Gain:,64,64
##Total Measurement Time in sec:,1.7971728
##XUNITS=Wavelength(nm)
##YUNITS=Intensity
##FIRSTX=901.630473432251
##LASTX=1700.8619821734
##PEAK TABLE=X+(Y..Y)
901.630473432251,30127
905.531115772228,32810
909.427452498074,35498
913.319483609787,37884
917.207209107368,41222
921.090628990817,45205
924.969743260134,50271
930.13519799724,57988
934.004265833582,64543
937.869028055792,70626
941.72948466387,76830
945.585635657816,81764
949.43748103763,86172
953.285020803312,90596
957.128254954862,94035
960.967183492279,97963
966.07905725352,102538
969.907939357962,105601
973.732515848273,108600
977.552786724452,111763
981.368751986498,114531
985.180411634413,116558
988.987765668195,119230
992.790814087846,121401
996.589556893364,122592
1001.64784967874,125106
1005.43654605128,126018
1009.22093680969,127226
1013.00102195397,127978
1016.77680148412,128038
1020.54827540013,128629
1024.31544370202,128902
1028.07830638977,128965
1031.83686346339,128587
1036.8415752729,128444
1040.59008591354,128335
1044.33429094005,128024
1048.07419035243,127768
1051.80978415068,127548
1055.5410723348,127463
1059.26805490478,127202
1062.99073186063,127003
1066.70910320235,127434
1071.66023403599,127972
1075.36855894474,128328
1079.07257823935,128619
1082.77229191983,129337
1086.46769998618,130338
1090.1588024384,131081
1093.84559927648,132321
1097.52809050043,133450
1101.20627611025,134653
1106.10382596803,136357
1109.77196514487,137831
1113.43579870759,138978
1117.09532665617,140423
1120.75054899062,141487
1124.40146571093,142193
1128.04807681712,143596
1131.69038230917,144881
1135.32838218709,146382
1140.172351069,148219
1143.80030451395,150237
1147.42395234476,151316
1151.04329456145,153055
1154.658331164,154574
1158.26906215241,155796
1161.8754875267,157265
1165.47760728685,159292
1169.07542143287,160715
1173.86580933892,163225
1177.45357705197,164715
1181.03703915088,166786
1184.61619563566,169005
1188.19104650631,171204
1191.76159176283,173775
1195.32783140522,176522
1198.88976543347,179258
1202.44739384759,181862
1207.18420077777,184912
1210.73178275892,187644
1214.27505912594,190113
1217.81402987882,192888
1221.34869501757,195684
1224.87905454219,198198
1228.40510845267,200906
1231.92685674903,203158
1235.44429943125,205474
1240.12752538557,208938
1243.63492163481,211022
1247.13801226993,212491
1250.63679729091,214438
1254.13127669776,216195
1257.62145049048,219609
1261.10731866907,223224
1264.58888123353,226402
1268.06613818385,229409
1272.6957831623,233972
1276.16299367965,236550
1279.62589858286,238622
1283.08449787195,240633
1286.5387915469,242692
1289.98877960772,244382
1293.43446205441,246176
1296.87583888696,247980
1300.31291010539,248770
1304.88897410797,250745
1308.31599889342,251617
1311.73871806474,251961
1315.15713162192,252449
1318.57123956497,253083
1321.98104189389,253257
1325.38653860868,253655
1328.78772970934,253587
1332.18461519586,253409
1336.70709822258,253487
1340.09393727613,252957
1343.47647071555,252280
1346.85469854083,251715
1350.22862075199,250433
1353.59823734901,248948
1356.9635483319,248031
1360.32455370065,246341
1363.68125345528,245131
1368.15015550613,244431
1371.49680882778,242561
1374.8391565353,241092
1378.17719862868,238932
1381.51093510794,236294
1384.84036597306,233368
1388.16549122405,230893
1391.48631086091,229142
1394.80282488363,227467
1399.21814595862,225186
1402.52461354837,224186
1405.82677552399,223179
1409.12463188548,222928
1412.41818263283,222431
1415.70742776605,221475
1418.99236728514,221998
1422.2730011901,221743
1425.54932948093,221764
1429.91106958005,221428
1433.1773514379,222100
1436.43932768162,221807
1439.6969983112,222387
1442.95036332666,222126
1446.19942272798,222483
1449.44417651517,222562
1452.68462468823,222151
1456.99852463033,222269
1460.22892637041,221547
1463.45502249637,220665
1466.67681300819,220360
1469.89429790587,219702
1473.10747718943,218864
1476.31635085885,217982
1479.52091891415,217096
1482.72118135531,215913
1486.98150032154,214414
1490.17171632972,213219
1493.35762672377,212271
1496.53923150369,211022
1499.71653066948,209879
1502.88952422114,208464
1506.05821215866,206722
1509.22259448206,205503
1512.38267119132,203743
1516.58940918168,201358
1519.73943945797,200200
1522.88516412012,198214
1526.02658316814,196127
1529.16369660203,194499
1532.29650442179,192868
1535.42500662741,190852
1538.54920321891,188818
1541.66909419627,186463
1545.82225121076,183850
1548.93209575515,181655
1552.0376346854,179205
1555.13886800153,176602
1558.23579570352,174464
1561.32841779137,171530
1564.4167342651,169090
1567.50074512469,166432
1570.58045037016,163618
1574.68002640879,159963
1577.74968522127,156302
1580.81503841963,153504
1583.87608600385,150064
1586.93282797394,146985
1589.9852643299,143537
1593.03339507173,140663
1596.07722019942,138130
1599.11673971298,134620
1603.16273477575,130137
1606.19220785634,127451
1609.21737532279,124226
1612.23823717512,121029
1615.25479341331,117337
1618.26704403737,115013
1621.27498904729,111383
1624.27862844309,108505
1627.27796222475,105373
1631.27037631165,101336
1634.25966366034,97884
1637.2446453949,94684
1640.22532151532,90989
1643.20169202161,87589
1646.17375691377,83809
1649.1415161918,80365
1652.10496985569,77002
1655.06411790546,73609
1659.00295101649,69801
1661.95205263328,67088
1664.89684863594,65425
1667.83733902446,63419
1670.77352379886,61499
1673.70540295912,58804
1676.63297650524,56006
1679.55624443724,52836
1682.4752067551,49077
1686.36045889027,43730
1689.26937477516,39449
1692.17398504592,35168
1695.07428970255,30736
1697.97028874504,26756
1700.8619821734,22533
##END=
