##TITLE=Column 1
##JCAMP-DX=4.24
##DATA TYPE=INFRARED SPECTRUM
##Method:,Column 1,Built-In Reference,,,Model Name,NIR-X-XX
##Host Date-Time:,27/10/20 @ 15:0:50,9/7/19 @ 16:39:9,,,GUI Version,2.4.4
##Header Version:,1,1,,,Tiva Version,2.1.0.67
##System Temp (C):,49.48,27.52,,,DLPC Version,2.0.0
##Detector Temp (C),0,0,,,UUID,DE:67:0C:88:67:19:47:21
##Humidity (%):,14.33,73.2,,,Main Board Version,D
##Lamp PD:,2671,2274
##Shift Vector Coefficients:,-6.85384978732833,0.0551332794684546,-0.000110731550088635
##Pixel to Wavelength Coefficients:,1790.66412099084,-0.917492857141292,-0.000239200785115314
##Serial Number:,925R021,925R021
##Scan Config Name:,Column 1,SystemTest
##Scan Config Type:,Column,Column
##Start wavelength (nm):,900,900
##End wavelength (nm):,1700,1700
##Pattern Pixel Width (nm):,7.03,7.03
##Exposure (ms):,0.635,0.635
##Digital Resolution:,228,228
##NPOINTS=228
##Num Repeats:,6,30
##PGA Gain:,64,64
##Total Measurement Time in sec:,1.8231318
##XUNITS=Wavelength(nm)
##YUNITS=Intensity
##FIRSTX=901.630473432251
##LASTX=1700.8619821734
##PEAK TABLE=X+(Y..Y)
901.630473432251,11665
905.531115772228,13309
909.427452498074,13834
913.319483609787,15094
917.207209107368,16263
921.090628990817,17793
924.969743260134,19863
930.13519799724,22215
934.004265833582,24585
937.869028055792,27233
941.72948466387,29374
945.585635657816,30964
949.43748103763,32645
953.285020803312,33924
957.128254954862,35204
960.967183492279,36414
966.07905725352,38055
969.907939357962,39048
973.732515848273,39967
977.552786724452,41083
981.368751986498,42076
985.180411634413,43154
988.987765668195,44205
992.790814087846,44575
996.589556893364,44935
1001.64784967874,45849
1005.43654605128,46250
1009.22093680969,46565
1013.00102195397,46870
1016.77680148412,46947
1020.54827540013,47161
1024.31544370202,47579
1028.07830638977,47090
1031.83686346339,47490
1036.8415752729,47394
1040.59008591354,47150
1044.33429094005,46705
1048.07419035243,47133
1051.80978415068,46892
1055.5410723348,47098
1059.26805490478,47685
1062.99073186063,47290
1066.70910320235,47352
1071.66023403599,47805
1075.36855894474,47438
1079.07257823935,48153
1082.77229191983,48726
1086.46769998618,48811
1090.1588024384,49622
1093.84559927648,50206
1097.52809050043,50589
1101.20627611025,51556
1106.10382596803,51955
1109.77196514487,52508
1113.43579870759,53208
1117.09532665617,53577
1120.75054899062,54236
1124.40146571093,54829
1128.04807681712,55200
1131.69038230917,56228
1135.32838218709,56214
1140.172351069,57112
1143.80030451395,57661
1147.42395234476,58543
1151.04329456145,58738
1154.658331164,59195
1158.26906215241,60044
1161.8754875267,61121
1165.47760728685,61582
1169.07542143287,61802
1173.86580933892,62803
1177.45357705197,63798
1181.03703915088,63887
1184.61619563566,65228
1188.19104650631,65891
1191.76159176283,66377
1195.32783140522,67699
1198.88976543347,68407
1202.44739384759,69156
1207.18420077777,70436
1210.73178275892,71096
1214.27505912594,72265
1217.81402987882,73024
1221.34869501757,74355
1224.87905454219,74596
1228.40510845267,75806
1231.92685674903,76653
1235.44429943125,77452
1240.12752538557,78716
1243.63492163481,79490
1247.13801226993,80139
1250.63679729091,80478
1254.13127669776,81566
1257.62145049048,82826
1261.10731866907,83947
1264.58888123353,85168
1268.06613818385,86124
1272.6957831623,87608
1276.16299367965,88608
1279.62589858286,89395
1283.08449787195,90212
1286.5387915469,91233
1289.98877960772,91963
1293.43446205441,92392
1296.87583888696,92763
1300.31291010539,93256
1304.88897410797,93880
1308.31599889342,94014
1311.73871806474,94418
1315.15713162192,94803
1318.57123956497,94641
1321.98104189389,95105
1325.38653860868,95414
1328.78772970934,95024
1332.18461519586,95479
1336.70709822258,95481
1340.09393727613,94614
1343.47647071555,94968
1346.85469854083,94601
1350.22862075199,94385
1353.59823734901,94099
1356.9635483319,93535
1360.32455370065,93088
1363.68125345528,92534
1368.15015550613,92288
1371.49680882778,91943
1374.8391565353,91077
1378.17719862868,90122
1381.51093510794,89571
1384.84036597306,88649
1388.16549122405,87904
1391.48631086091,86973
1394.80282488363,86409
1399.21814595862,85522
1402.52461354837,85388
1405.82677552399,85005
1409.12463188548,84505
1412.41818263283,84381
1415.70742776605,84291
1418.99236728514,84378
1422.2730011901,84216
1425.54932948093,84556
1429.91106958005,84148
1433.1773514379,84643
1436.43932768162,84416
1439.6969983112,84579
1442.95036332666,84611
1446.19942272798,84501
1449.44417651517,84602
1452.68462468823,84737
1456.99852463033,83967
1460.22892637041,84198
1463.45502249637,83853
1466.67681300819,83764
1469.89429790587,83574
1473.10747718943,83328
1476.31635085885,82695
1479.52091891415,82433
1482.72118135531,82145
1486.98150032154,81636
1490.17171632972,80875
1493.35762672377,80558
1496.53923150369,80096
1499.71653066948,79861
1502.88952422114,79035
1506.05821215866,78747
1509.22259448206,78000
1512.38267119132,77751
1516.58940918168,76574
1519.73943945797,76262
1522.88516412012,75145
1526.02658316814,74653
1529.16369660203,74069
1532.29650442179,73356
1535.42500662741,72648
1538.54920321891,71861
1541.66909419627,70985
1545.82225121076,70031
1548.93209575515,69119
1552.0376346854,68191
1555.13886800153,67074
1558.23579570352,66195
1561.32841779137,65398
1564.4167342651,64208
1567.50074512469,63311
1570.58045037016,62425
1574.68002640879,60477
1577.74968522127,59461
1580.81503841963,58030
1583.87608600385,57006
1586.93282797394,55518
1589.9852643299,54981
1593.03339507173,53331
1596.07722019942,52312
1599.11673971298,51068
1603.16273477575,49121
1606.19220785634,48001
1609.21737532279,46920
1612.23823717512,45713
1615.25479341331,44559
1618.26704403737,43773
1621.27498904729,42088
1624.27862844309,41207
1627.27796222475,39680
1631.27037631165,38709
1634.25966366034,37408
1637.2446453949,36177
1640.22532151532,34990
1643.20169202161,33798
1646.17375691377,32665
1649.1415161918,31283
1652.10496985569,29916
1655.06411790546,29341
1659.00295101649,27803
1661.95205263328,26478
1664.89684863594,25938
1667.83733902446,24672
1670.77352379886,23650
1673.70540295912,22742
1676.63297650524,21675
1679.55624443724,20074
1682.4752067551,19081
1686.36045889027,16644
1689.26937477516,15114
1692.17398504592,13176
1695.07428970255,11459
1697.97028874504,9782
1700.8619821734,8415
##END=
