##TITLE=Column 1
##JCAMP-DX=4.24
##DATA TYPE=INFRARED SPECTRUM
##Method:,Column 1,Built-In Reference,,,Model Name,NIR-X-XX
##Host Date-Time:,27/10/20 @ 14:59:53,9/7/19 @ 16:39:9,,,GUI Version,2.4.4
##Header Version:,1,1,,,Tiva Version,2.1.0.67
##System Temp (C):,49.11,27.52,,,DLPC Version,2.0.0
##Detector Temp (C),0,0,,,UUID,DE:67:0C:88:67:19:47:21
##Humidity (%):,14.52,73.2,,,Main Board Version,D
##Lamp PD:,2669,2274
##Shift Vector Coefficients:,-6.85384978732833,0.0551332794684546,-0.000110731550088635
##Pixel to Wavelength Coefficients:,1790.66412099084,-0.917492857141292,-0.000239200785115314
##Serial Number:,925R021,925R021
##Scan Config Name:,Column 1,SystemTest
##Scan Config Type:,Column,Column
##Start wavelength (nm):,900,900
##End wavelength (nm):,1700,1700
##Pattern Pixel Width (nm):,7.03,7.03
##Exposure (ms):,0.635,0.635
##Digital Resolution:,228,228
##NPOINTS=228
##Num Repeats:,6,30
##PGA Gain:,64,64
##Total Measurement Time in sec:,1.7911808
##XUNITS=Wavelength(nm)
##YUNITS=Intensity
##FIRSTX=901.630473432251
##LASTX=1700.8619821734
##PEAK TABLE=X+(Y..Y)
901.630473432251,16961
905.531115772228,18831
909.427452498074,19969
913.319483609787,21753
917.207209107368,23519
921.090628990817,25544
924.969743260134,28463
930.13519799724,33045
934.004265833582,36540
937.869028055792,40167
941.72948466387,43461
945.585635657816,46196
949.43748103763,48641
953.285020803312,50610
957.128254954862,52570
960.967183492279,54520
966.07905725352,57087
969.907939357962,59070
973.732515848273,60377
977.552786724452,62144
981.368751986498,63404
985.180411634413,64784
988.987765668195,66170
992.790814087846,67190
996.589556893364,68206
1001.64784967874,69069
1005.43654605128,69884
1009.22093680969,70265
1013.00102195397,70752
1016.77680148412,70693
1020.54827540013,70894
1024.31544370202,71152
1028.07830638977,71345
1031.83686346339,70912
1036.8415752729,70932
1040.59008591354,70531
1044.33429094005,70313
1048.07419035243,70099
1051.80978415068,70282
1055.5410723348,70019
1059.26805490478,70157
1062.99073186063,69595
1066.70910320235,69719
1071.66023403599,69709
1075.36855894474,70154
1079.07257823935,70280
1082.77229191983,70885
1086.46769998618,71144
1090.1588024384,71274
1093.84559927648,71990
1097.52809050043,72676
1101.20627611025,73626
1106.10382596803,74165
1109.77196514487,74858
1113.43579870759,76018
1117.09532665617,76113
1120.75054899062,76959
1124.40146571093,77914
1128.04807681712,78421
1131.69038230917,79098
1135.32838218709,80223
1140.172351069,81086
1143.80030451395,81983
1147.42395234476,82520
1151.04329456145,83626
1154.658331164,84685
1158.26906215241,85513
1161.8754875267,86529
1165.47760728685,87376
1169.07542143287,88425
1173.86580933892,89392
1177.45357705197,90778
1181.03703915088,91654
1184.61619563566,93346
1188.19104650631,94144
1191.76159176283,96180
1195.32783140522,97273
1198.88976543347,98459
1202.44739384759,99897
1207.18420077777,101875
1210.73178275892,103254
1214.27505912594,105056
1217.81402987882,106227
1221.34869501757,107632
1224.87905454219,109535
1228.40510845267,110331
1231.92685674903,112086
1235.44429943125,113429
1240.12752538557,115198
1243.63492163481,116036
1247.13801226993,116271
1250.63679729091,117639
1254.13127669776,118472
1257.62145049048,120294
1261.10731866907,122312
1264.58888123353,124511
1268.06613818385,125742
1272.6957831623,127849
1276.16299367965,129645
1279.62589858286,130835
1283.08449787195,131860
1286.5387915469,132955
1289.98877960772,134391
1293.43446205441,134927
1296.87583888696,135777
1300.31291010539,136389
1304.88897410797,137463
1308.31599889342,137286
1311.73871806474,138067
1315.15713162192,138458
1318.57123956497,138728
1321.98104189389,138906
1325.38653860868,139056
1328.78772970934,139138
1332.18461519586,139245
1336.70709822258,139315
1340.09393727613,139027
1343.47647071555,138563
1346.85469854083,138254
1350.22862075199,137777
1353.59823734901,137033
1356.9635483319,136409
1360.32455370065,135748
1363.68125345528,135114
1368.15015550613,134516
1371.49680882778,133968
1374.8391565353,133154
1378.17719862868,131972
1381.51093510794,130133
1384.84036597306,129096
1388.16549122405,127551
1391.48631086091,126558
1394.80282488363,125362
1399.21814595862,124853
1402.52461354837,124265
1405.82677552399,123625
1409.12463188548,123326
1412.41818263283,123440
1415.70742776605,123339
1418.99236728514,122956
1422.2730011901,123012
1425.54932948093,123187
1429.91106958005,123142
1433.1773514379,122843
1436.43932768162,123274
1439.6969983112,123267
1442.95036332666,123532
1446.19942272798,123580
1449.44417651517,123538
1452.68462468823,123518
1456.99852463033,123336
1460.22892637041,122529
1463.45502249637,122560
1466.67681300819,122565
1469.89429790587,121811
1473.10747718943,121702
1476.31635085885,120740
1479.52091891415,120445
1482.72118135531,119897
1486.98150032154,119105
1490.17171632972,118508
1493.35762672377,117876
1496.53923150369,117240
1499.71653066948,116531
1502.88952422114,115619
1506.05821215866,115371
1509.22259448206,114429
1512.38267119132,113336
1516.58940918168,112096
1519.73943945797,111024
1522.88516412012,110383
1526.02658316814,108954
1529.16369660203,108166
1532.29650442179,106891
1535.42500662741,106046
1538.54920321891,104905
1541.66909419627,103820
1545.82225121076,102065
1548.93209575515,101649
1552.0376346854,99991
1555.13886800153,98544
1558.23579570352,97293
1561.32841779137,96129
1564.4167342651,95163
1567.50074512469,93285
1570.58045037016,91684
1574.68002640879,89643
1577.74968522127,87921
1580.81503841963,86649
1583.87608600385,84582
1586.93282797394,82988
1589.9852643299,80915
1593.03339507173,79291
1596.07722019942,78003
1599.11673971298,76034
1603.16273477575,73542
1606.19220785634,72446
1609.21737532279,70254
1612.23823717512,68952
1615.25479341331,67228
1618.26704403737,65567
1621.27498904729,63624
1624.27862844309,62244
1627.27796222475,60302
1631.27037631165,58208
1634.25966366034,56619
1637.2446453949,54942
1640.22532151532,53098
1643.20169202161,50966
1646.17375691377,49331
1649.1415161918,47542
1652.10496985569,45720
1655.06411790546,44265
1659.00295101649,41948
1661.95205263328,40495
1664.89684863594,39024
1667.83733902446,38080
1670.77352379886,36660
1673.70540295912,34953
1676.63297650524,33286
1679.55624443724,31526
1682.4752067551,29071
1686.36045889027,25586
1689.26937477516,22743
1692.17398504592,20110
1695.07428970255,17553
1697.97028874504,15374
1700.8619821734,13056
##END=
