##TITLE=Column 1
##JCAMP-DX=4.24
##DATA TYPE=INFRARED SPECTRUM
##Method:,Column 1,Built-In Reference,,,Model Name,NIR-X-XX
##Host Date-Time:,27/10/20 @ 15:0:29,9/7/19 @ 16:39:9,,,GUI Version,2.4.4
##Header Version:,1,1,,,Tiva Version,2.1.0.67
##System Temp (C):,49.35,27.52,,,DLPC Version,2.0.0
##Detector Temp (C),0,0,,,UUID,DE:67:0C:88:67:19:47:21
##Humidity (%):,14.33,73.2,,,Main Board Version,D
##Lamp PD:,2671,2274
##Shift Vector Coefficients:,-6.85384978732833,0.0551332794684546,-0.000110731550088635
##Pixel to Wavelength Coefficients:,1790.66412099084,-0.917492857141292,-0.000239200785115314
##Serial Number:,925R021,925R021
##Scan Config Name:,Column 1,SystemTest
##Scan Config Type:,Column,Column
##Start wavelength (nm):,900,900
##End wavelength (nm):,1700,1700
##Pattern Pixel Width (nm):,7.03,7.03
##Exposure (ms):,0.635,0.635
##Digital Resolution:,228,228
##NPOINTS=228
##Num Repeats:,6,30
##PGA Gain:,64,64
##Total Measurement Time in sec:,1.7961772
##XUNITS=Wavelength(nm)
##YUNITS=Intensity
##FIRSTX=901.630473432251
##LASTX=1700.8619821734
##PEAK TABLE=X+(Y..Y)
901.630473432251,18215
905.531115772228,19550
909.427452498074,21556
913.319483609787,23016
917.207209107368,24827
921.090628990817,27661
924.969743260134,30696
930.13519799724,35494
934.004265833582,40161
937.869028055792,43828
941.72948466387,47601
945.585635657816,50721
949.43748103763,54150
953.285020803312,56561
957.128254954862,59133
960.967183492279,61730
966.07905725352,64838
969.907939357962,66959
973.732515848273,69590
977.552786724452,71321
981.368751986498,73410
985.180411634413,75077
988.987765668195,76178
992.790814087846,78093
996.589556893364,79382
1001.64784967874,80325
1005.43654605128,81124
1009.22093680969,81515
1013.00102195397,82090
1016.77680148412,82254
1020.54827540013,82872
1024.31544370202,82401
1028.07830638977,82645
1031.83686346339,82442
1036.8415752729,82014
1040.59008591354,81709
1044.33429094005,81619
1048.07419035243,80902
1051.80978415068,80746
1055.5410723348,80571
1059.26805490478,79947
1062.99073186063,80015
1066.70910320235,79981
1071.66023403599,79553
1075.36855894474,79757
1079.07257823935,80053
1082.77229191983,80349
1086.46769998618,80660
1090.1588024384,80777
1093.84559927648,81572
1097.52809050043,82010
1101.20627611025,82494
1106.10382596803,83433
1109.77196514487,84093
1113.43579870759,85116
1117.09532665617,85716
1120.75054899062,86130
1124.40146571093,86705
1128.04807681712,87192
1131.69038230917,88103
1135.32838218709,89010
1140.172351069,90060
1143.80030451395,91379
1147.42395234476,91952
1151.04329456145,92973
1154.658331164,94214
1158.26906215241,94821
1161.8754875267,95952
1165.47760728685,97092
1169.07542143287,98154
1173.86580933892,99577
1177.45357705197,100363
1181.03703915088,101827
1184.61619563566,102971
1188.19104650631,105228
1191.76159176283,106467
1195.32783140522,107738
1198.88976543347,109473
1202.44739384759,111140
1207.18420077777,113184
1210.73178275892,115155
1214.27505912594,116738
1217.81402987882,118634
1221.34869501757,120183
1224.87905454219,121895
1228.40510845267,123439
1231.92685674903,125051
1235.44429943125,126652
1240.12752538557,128425
1243.63492163481,130274
1247.13801226993,131000
1250.63679729091,132276
1254.13127669776,133493
1257.62145049048,135613
1261.10731866907,137659
1264.58888123353,139579
1268.06613818385,141883
1272.6957831623,144285
1276.16299367965,145932
1279.62589858286,147622
1283.08449787195,148921
1286.5387915469,150158
1289.98877960772,151052
1293.43446205441,152281
1296.87583888696,153055
1300.31291010539,154238
1304.88897410797,154763
1308.31599889342,154945
1311.73871806474,155827
1315.15713162192,155697
1318.57123956497,156057
1321.98104189389,156205
1325.38653860868,156367
1328.78772970934,156148
1332.18461519586,156021
1336.70709822258,156187
1340.09393727613,155802
1343.47647071555,155721
1346.85469854083,155211
1350.22862075199,154312
1353.59823734901,153600
1356.9635483319,152722
1360.32455370065,151777
1363.68125345528,151403
1368.15015550613,150340
1371.49680882778,149781
1374.8391565353,148920
1378.17719862868,147327
1381.51093510794,146012
1384.84036597306,144065
1388.16549122405,142868
1391.48631086091,141638
1394.80282488363,140686
1399.21814595862,138978
1402.52461354837,138740
1405.82677552399,138295
1409.12463188548,137734
1412.41818263283,137656
1415.70742776605,137647
1418.99236728514,137731
1422.2730011901,137378
1425.54932948093,137634
1429.91106958005,137722
1433.1773514379,138219
1436.43932768162,137881
1439.6969983112,138048
1442.95036332666,138381
1446.19942272798,138336
1449.44417651517,138419
1452.68462468823,138106
1456.99852463033,137896
1460.22892637041,138081
1463.45502249637,137337
1466.67681300819,137200
1469.89429790587,136922
1473.10747718943,136636
1476.31635085885,136208
1479.52091891415,135254
1482.72118135531,134777
1486.98150032154,134185
1490.17171632972,133009
1493.35762672377,132434
1496.53923150369,131468
1499.71653066948,131068
1502.88952422114,129878
1506.05821215866,129246
1509.22259448206,128556
1512.38267119132,127592
1516.58940918168,126316
1519.73943945797,125596
1522.88516412012,124263
1526.02658316814,123332
1529.16369660203,122217
1532.29650442179,121246
1535.42500662741,120407
1538.54920321891,119086
1541.66909419627,117909
1545.82225121076,116435
1548.93209575515,114869
1552.0376346854,113535
1555.13886800153,112177
1558.23579570352,110868
1561.32841779137,109396
1564.4167342651,108054
1567.50074512469,106589
1570.58045037016,105245
1574.68002640879,102355
1577.74968522127,100922
1580.81503841963,99097
1583.87608600385,97322
1586.93282797394,95602
1589.9852643299,93426
1593.03339507173,91588
1596.07722019942,90015
1599.11673971298,88157
1603.16273477575,85593
1606.19220785634,84004
1609.21737532279,82102
1612.23823717512,80506
1615.25479341331,78201
1618.26704403737,76350
1621.27498904729,74996
1624.27862844309,72759
1627.27796222475,71404
1631.27037631165,68737
1634.25966366034,66320
1637.2446453949,64366
1640.22532151532,62055
1643.20169202161,59894
1646.17375691377,57250
1649.1415161918,55322
1652.10496985569,52779
1655.06411790546,50848
1659.00295101649,48230
1661.95205263328,46454
1664.89684863594,45917
1667.83733902446,44048
1670.77352379886,43147
1673.70540295912,41405
1676.63297650524,39418
1679.55624443724,37451
1682.4752067551,35129
1686.36045889027,31071
1689.26937477516,27959
1692.17398504592,25075
1695.07428970255,21168
1697.97028874504,18769
1700.8619821734,15943
##END=
