##TITLE=Column 1
##JCAMP-DX=4.24
##DATA TYPE=INFRARED SPECTRUM
##Method:,Column 1,Built-In Reference,,,Model Name,NIR-X-XX
##Host Date-Time:,27/10/20 @ 12:53:13,9/7/19 @ 16:39:9,,,GUI Version,2.4.4
##Header Version:,1,1,,,Tiva Version,2.1.0.67
##System Temp (C):,33.54,27.52,,,DLPC Version,2.0.0
##Detector Temp (C),0,0,,,UUID,DE:67:0C:88:67:19:47:21
##Humidity (%):,42.79,73.2,,,Main Board Version,D
##Lamp PD:,2429,2274
##Shift Vector Coefficients:,-6.85384978732833,0.0551332794684546,-0.000110731550088635
##Pixel to Wavelength Coefficients:,1790.66412099084,-0.917492857141292,-0.000239200785115314
##Serial Number:,925R021,925R021
##Scan Config Name:,Column 1,SystemTest
##Scan Config Type:,Column,Column
##Start wavelength (nm):,900,900
##End wavelength (nm):,1700,1700
##Pattern Pixel Width (nm):,7.03,7.03
##Exposure (ms):,0.635,0.635
##Digital Resolution:,228,228
##NPOINTS=228
##Num Repeats:,6,30
##PGA Gain:,64,64
##Total Measurement Time in sec:,1.7861903
##XUNITS=Wavelength(nm)
##YUNITS=Intensity
##FIRSTX=901.630473432251
##LASTX=1700.8619821734
##PEAK TABLE=X+(Y..Y)
901.630473432251,25778
905.531115772228,28313
909.427452498074,30581
913.319483609787,33061
917.207209107368,36471
921.090628990817,40131
924.969743260134,45306
930.13519799724,53346
934.004265833582,58976
937.869028055792,64050
941.72948466387,68897
945.585635657816,71996
949.43748103763,75571
953.285020803312,78347
957.128254954862,81258
960.967183492279,84077
966.07905725352,87139
969.907939357962,90113
973.732515848273,92907
977.552786724452,95384
981.368751986498,97151
985.180411634413,99200
988.987765668195,100955
992.790814087846,102621
996.589556893364,103782
1001.64784967874,105350
1005.43654605128,106365
1009.22093680969,107115
1013.00102195397,107445
1016.77680148412,107533
1020.54827540013,107749
1024.31544370202,107716
1028.07830638977,107427
1031.83686346339,107480
1036.8415752729,106617
1040.59008591354,106257
1044.33429094005,105639
1048.07419035243,105568
1051.80978415068,104770
1055.5410723348,104492
1059.26805490478,104462
1062.99073186063,104048
1066.70910320235,103828
1071.66023403599,103675
1075.36855894474,104065
1079.07257823935,103795
1082.77229191983,104432
1086.46769998618,104751
1090.1588024384,105426
1093.84559927648,105813
1097.52809050043,106777
1101.20627611025,107396
1106.10382596803,108302
1109.77196514487,108929
1113.43579870759,109750
1117.09532665617,110673
1120.75054899062,112040
1124.40146571093,112475
1128.04807681712,113189
1131.69038230917,113972
1135.32838218709,114917
1140.172351069,116575
1143.80030451395,117754
1147.42395234476,118580
1151.04329456145,119940
1154.658331164,121047
1158.26906215241,122513
1161.8754875267,123587
1165.47760728685,124978
1169.07542143287,126593
1173.86580933892,128671
1177.45357705197,130232
1181.03703915088,131831
1184.61619563566,133286
1188.19104650631,135172
1191.76159176283,137378
1195.32783140522,139536
1198.88976543347,141342
1202.44739384759,143285
1207.18420077777,146099
1210.73178275892,148452
1214.27505912594,150202
1217.81402987882,152363
1221.34869501757,154030
1224.87905454219,155850
1228.40510845267,158064
1231.92685674903,159755
1235.44429943125,161722
1240.12752538557,164085
1243.63492163481,165540
1247.13801226993,166647
1250.63679729091,167803
1254.13127669776,169130
1257.62145049048,171471
1261.10731866907,173896
1264.58888123353,176530
1268.06613818385,178688
1272.6957831623,181616
1276.16299367965,183451
1279.62589858286,185711
1283.08449787195,187072
1286.5387915469,188491
1289.98877960772,189669
1293.43446205441,190855
1296.87583888696,192331
1300.31291010539,193204
1304.88897410797,194005
1308.31599889342,194911
1311.73871806474,195071
1315.15713162192,195673
1318.57123956497,195863
1321.98104189389,196476
1325.38653860868,195981
1328.78772970934,196398
1332.18461519586,195973
1336.70709822258,195777
1340.09393727613,195702
1343.47647071555,194888
1346.85469854083,194601
1350.22862075199,193608
1353.59823734901,192238
1356.9635483319,192075
1360.32455370065,190630
1363.68125345528,189467
1368.15015550613,188046
1371.49680882778,187389
1374.8391565353,186150
1378.17719862868,184569
1381.51093510794,182444
1384.84036597306,180339
1388.16549122405,178390
1391.48631086091,176828
1394.80282488363,175420
1399.21814595862,174025
1402.52461354837,173163
1405.82677552399,172965
1409.12463188548,172137
1412.41818263283,171504
1415.70742776605,171535
1418.99236728514,171366
1422.2730011901,171180
1425.54932948093,171436
1429.91106958005,171629
1433.1773514379,171840
1436.43932768162,171504
1439.6969983112,171396
1442.95036332666,171829
1446.19942272798,171623
1449.44417651517,171982
1452.68462468823,171516
1456.99852463033,171521
1460.22892637041,171145
1463.45502249637,170587
1466.67681300819,170015
1469.89429790587,169752
1473.10747718943,168564
1476.31635085885,167737
1479.52091891415,167088
1482.72118135531,166238
1486.98150032154,164837
1490.17171632972,164443
1493.35762672377,163333
1496.53923150369,162523
1499.71653066948,161484
1502.88952422114,160572
1506.05821215866,159326
1509.22259448206,158472
1512.38267119132,157271
1516.58940918168,155247
1519.73943945797,154070
1522.88516412012,152547
1526.02658316814,151330
1529.16369660203,149939
1532.29650442179,148357
1535.42500662741,146983
1538.54920321891,145657
1541.66909419627,143674
1545.82225121076,141647
1548.93209575515,140288
1552.0376346854,138331
1555.13886800153,136431
1558.23579570352,134573
1561.32841779137,132473
1564.4167342651,130646
1567.50074512469,128912
1570.58045037016,126972
1574.68002640879,124010
1577.74968522127,121573
1580.81503841963,119200
1583.87608600385,116946
1586.93282797394,114762
1589.9852643299,112711
1593.03339507173,110455
1596.07722019942,107874
1599.11673971298,105739
1603.16273477575,102819
1606.19220785634,100481
1609.21737532279,98501
1612.23823717512,96078
1615.25479341331,93664
1618.26704403737,91309
1621.27498904729,89261
1624.27862844309,87191
1627.27796222475,84900
1631.27037631165,81829
1634.25966366034,79612
1637.2446453949,76899
1640.22532151532,74863
1643.20169202161,72291
1646.17375691377,69796
1649.1415161918,67420
1652.10496985569,65010
1655.06411790546,62084
1659.00295101649,58566
1661.95205263328,56201
1664.89684863594,53161
1667.83733902446,50440
1670.77352379886,46813
1673.70540295912,42546
1676.63297650524,37558
1679.55624443724,32937
1682.4752067551,28149
1686.36045889027,22492
1689.26937477516,19645
1692.17398504592,15891
1695.07428970255,13994
1697.97028874504,11937
1700.8619821734,9909
##END=
