***Scan Config Information***,,,,,,,***Reference Scan Information***,,,,,,,
Scan Config Name:,Column 1,,,,,,Scan Config Name:,Built-in Factory Reference,,,,,,,,
Scan Config Type:,Slew,Num Section:,1,,,,Scan Config Type:,Slew,Num Section:,1,,,,,
Section Config Type:,Column,,,,,,Section Config Type:,Column,,,,,,,
Start Wavelength (nm):,900,,,,,,Start Wavelength (nm):,900,,,,,,,
End Wavelength (nm):,1700,,,,,,End Wavelength (nm):,1700,,,,,,,
Pattern Width (nm):,7.03,,,,,,Pattern Width (nm):,7.03,,,,,,,
Exposure (ms):,0.635,,,,,,Exposure (ms):,0.635,,,,,,,
Digital Resolution:,228,,,,,,Digital Resolution:,228,,,,,,,
Num Repeats:,6,,,,,,Num Repeats:,30,,,,,,,
PGA Gain:,64,,,,,,PGA Gain:,64,,,,,,,
System Temp (C):,34.32,,,,,,System Temp (C):,27.52,,,,,,,
Humidity (%):,42.1,,,,,,Humidity (%):,73.2,,,,,,,
Lamp Intensity:,2442,,,,,,Lamp Intensity:,2274,,,,,,,
Data Date-Time:,27/10/20 @ 12:53:44,,,,,,Data Date-Time:,9/7/19 @ 16:39:9,,,,,,,
Total Measurement Time in sec:,1.7851948,,,,,,,,,,,,,,
,,,,,,,,,,,,,,,
***General Information***,,,,,,,***Calibration Coefficients***,,,,,,,
Model Name:,NIR-X-XX,,,,,,Shift Vector Coefficients:,-6.85384978732833,0.0551332794684546,-0.000110731550088635,,,,,
Serial Number:,925R021,(95UB122GC1A925R021),,,,,Pixel to Wavelength Coefficients:,1790.66412099084,-0.917492857141292,-0.000239200785115314,,,,,
GUI Version:,2.4.4,,,,,,Versions (Cal/Ref/Cfg):,1,3,1,,,,,
TIVA Version:,2.1.0.67,,,,,,***Lamp Usage * **,,,,,,,
DLPC Version:,2.0.0,,,,,,Total Time(HH:MM:SS):,NA,,,,,,
UUID:,DE:67:0C:88:67:19:47:21,,,,,,***Device/Error Status***,,,,,,,
Main Board Version:,D,,,,,,Device Status:,0x00000001,,,,,,
Detector Board Version:,B,,,,,,Error status:,0x00000000,Error Code:,0x00000000000000000000000000000000,,,,
,,,,,,,,,,,,,,,
***Scan Data***,,,,,,,,,,,,,,
Wavelength (nm),Sample Signal (unitless)
901.630473432251,25882
905.531115772228,28622
909.427452498074,30293
913.319483609787,33011
917.207209107368,36154
921.090628990817,39935
924.969743260134,44898
930.13519799724,52193
934.004265833582,58314
937.869028055792,63023
941.72948466387,68028
945.585635657816,71715
949.43748103763,75162
953.285020803312,78193
957.128254954862,81226
960.967183492279,84677
966.07905725352,88497
969.907939357962,91553
973.732515848273,93709
977.552786724452,96806
981.368751986498,99212
985.180411634413,101248
988.987765668195,103207
992.790814087846,104824
996.589556893364,106286
1001.64784967874,108321
1005.43654605128,109161
1009.22093680969,109685
1013.00102195397,110462
1016.77680148412,110199
1020.54827540013,110901
1024.31544370202,111100
1028.07830638977,110839
1031.83686346339,110726
1036.8415752729,110157
1040.59008591354,109995
1044.33429094005,109435
1048.07419035243,109304
1051.80978415068,109009
1055.5410723348,108387
1059.26805490478,108066
1062.99073186063,108159
1066.70910320235,107917
1071.66023403599,107743
1075.36855894474,107637
1079.07257823935,108771
1082.77229191983,108657
1086.46769998618,109504
1090.1588024384,109519
1093.84559927648,110440
1097.52809050043,110840
1101.20627611025,112019
1106.10382596803,112907
1109.77196514487,113841
1113.43579870759,114741
1117.09532665617,115661
1120.75054899062,116575
1124.40146571093,117469
1128.04807681712,117786
1131.69038230917,119313
1135.32838218709,119849
1140.172351069,121180
1143.80030451395,121899
1147.42395234476,123017
1151.04329456145,123983
1154.658331164,125146
1158.26906215241,126410
1161.8754875267,127305
1165.47760728685,128100
1169.07542143287,129595
1173.86580933892,130981
1177.45357705197,132722
1181.03703915088,133811
1184.61619563566,135167
1188.19104650631,137077
1191.76159176283,138871
1195.32783140522,140541
1198.88976543347,143142
1202.44739384759,144876
1207.18420077777,147439
1210.73178275892,149615
1214.27505912594,151638
1217.81402987882,153958
1221.34869501757,156258
1224.87905454219,158469
1228.40510845267,160197
1231.92685674903,162401
1235.44429943125,164337
1240.12752538557,166953
1243.63492163481,168815
1247.13801226993,170270
1250.63679729091,171436
1254.13127669776,173499
1257.62145049048,175555
1261.10731866907,177789
1264.58888123353,180922
1268.06613818385,183324
1272.6957831623,186504
1276.16299367965,188719
1279.62589858286,190723
1283.08449787195,192285
1286.5387915469,193690
1289.98877960772,195199
1293.43446205441,196545
1296.87583888696,197727
1300.31291010539,199005
1304.88897410797,199887
1308.31599889342,200647
1311.73871806474,201121
1315.15713162192,200997
1318.57123956497,201524
1321.98104189389,201701
1325.38653860868,202399
1328.78772970934,202027
1332.18461519586,202153
1336.70709822258,201945
1340.09393727613,201508
1343.47647071555,200945
1346.85469854083,200727
1350.22862075199,199607
1353.59823734901,198309
1356.9635483319,197311
1360.32455370065,196289
1363.68125345528,195431
1368.15015550613,193592
1371.49680882778,192797
1374.8391565353,191807
1378.17719862868,189534
1381.51093510794,187566
1384.84036597306,185606
1388.16549122405,183810
1391.48631086091,181928
1394.80282488363,180633
1399.21814595862,178733
1402.52461354837,178517
1405.82677552399,177663
1409.12463188548,176804
1412.41818263283,176063
1415.70742776605,176285
1418.99236728514,175923
1422.2730011901,176131
1425.54932948093,176458
1429.91106958005,176471
1433.1773514379,176779
1436.43932768162,177149
1439.6969983112,177238
1442.95036332666,177604
1446.19942272798,177634
1449.44417651517,177574
1452.68462468823,177615
1456.99852463033,177070
1460.22892637041,176817
1463.45502249637,176295
1466.67681300819,175455
1469.89429790587,175068
1473.10747718943,174646
1476.31635085885,173816
1479.52091891415,173118
1482.72118135531,172510
1486.98150032154,171611
1490.17171632972,170508
1493.35762672377,169328
1496.53923150369,168705
1499.71653066948,167653
1502.88952422114,166486
1506.05821215866,165250
1509.22259448206,163990
1512.38267119132,162881
1516.58940918168,160681
1519.73943945797,159648
1522.88516412012,157954
1526.02658316814,156847
1529.16369660203,155327
1532.29650442179,154038
1535.42500662741,152428
1538.54920321891,150684
1541.66909419627,148583
1545.82225121076,146678
1548.93209575515,144894
1552.0376346854,143167
1555.13886800153,141361
1558.23579570352,139239
1561.32841779137,137128
1564.4167342651,135166
1567.50074512469,133125
1570.58045037016,131297
1574.68002640879,128293
1577.74968522127,125565
1580.81503841963,123054
1583.87608600385,120764
1586.93282797394,118434
1589.9852643299,115903
1593.03339507173,113654
1596.07722019942,111284
1599.11673971298,108363
1603.16273477575,105838
1606.19220785634,103240
1609.21737532279,100674
1612.23823717512,98225
1615.25479341331,95997
1618.26704403737,93584
1621.27498904729,91011
1624.27862844309,88611
1627.27796222475,86395
1631.27037631165,83143
1634.25966366034,80853
1637.2446453949,78290
1640.22532151532,76119
1643.20169202161,73692
1646.17375691377,71011
1649.1415161918,68501
1652.10496985569,65922
1655.06411790546,63479
1659.00295101649,59969
1661.95205263328,57643
1664.89684863594,54801
1667.83733902446,51071
1670.77352379886,47889
1673.70540295912,44007
1676.63297650524,38864
1679.55624443724,33963
1682.4752067551,29132
1686.36045889027,23562
1689.26937477516,19520
1692.17398504592,16749
1695.07428970255,14420
1697.97028874504,12125
1700.8619821734,10627
