##TITLE=Column 1
##JCAMP-DX=4.24
##DATA TYPE=INFRARED SPECTRUM
##Method:,Column 1,Built-In Reference,,,Model Name,NIR-X-XX
##Host Date-Time:,27/10/20 @ 12:53:16,9/7/19 @ 16:39:9,,,GUI Version,2.4.4
##Header Version:,1,1,,,Tiva Version,2.1.0.67
##System Temp (C):,33.63,27.52,,,DLPC Version,2.0.0
##Detector Temp (C),0,0,,,UUID,DE:67:0C:88:67:19:47:21
##Humidity (%):,42.74,73.2,,,Main Board Version,D
##Lamp PD:,2429,2274
##Shift Vector Coefficients:,-6.85384978732833,0.0551332794684546,-0.000110731550088635
##Pixel to Wavelength Coefficients:,1790.66412099084,-0.917492857141292,-0.000239200785115314
##Serial Number:,925R021,925R021
##Scan Config Name:,Column 1,SystemTest
##Scan Config Type:,Column,Column
##Start wavelength (nm):,900,900
##End wavelength (nm):,1700,1700
##Pattern Pixel Width (nm):,7.03,7.03
##Exposure (ms):,0.635,0.635
##Digital Resolution:,228,228
##NPOINTS=228
##Num Repeats:,6,30
##PGA Gain:,64,64
##Total Measurement Time in sec:,1.8351165
##XUNITS=Wavelength(nm)
##YUNITS=Intensity
##FIRSTX=901.630473432251
##LASTX=1700.8619821734
##PEAK TABLE=X+(Y..Y)
901.630473432251,25231
905.531115772228,27512
909.427452498074,30005
913.319483609787,32548
917.207209107368,35449
921.090628990817,39001
924.969743260134,44020
930.13519799724,51963
934.004265833582,57177
937.869028055792,62245
941.72948466387,66836
945.585635657816,70558
949.43748103763,73816
953.285020803312,77050
957.128254954862,80454
960.967183492279,83338
966.07905725352,86940
969.907939357962,90025
973.732515848273,92180
977.552786724452,94946
981.368751986498,97282
985.180411634413,99436
988.987765668195,101438
992.790814087846,102843
996.589556893364,104340
1001.64784967874,105855
1005.43654605128,106733
1009.22093680969,106991
1013.00102195397,107869
1016.77680148412,107896
1020.54827540013,107915
1024.31544370202,107849
1028.07830638977,107366
1031.83686346339,107482
1036.8415752729,106990
1040.59008591354,106513
1044.33429094005,106217
1048.07419035243,105814
1051.80978415068,105397
1055.5410723348,105203
1059.26805490478,104567
1062.99073186063,104617
1066.70910320235,104045
1071.66023403599,103957
1075.36855894474,104076
1079.07257823935,104591
1082.77229191983,104686
1086.46769998618,104939
1090.1588024384,105170
1093.84559927648,106389
1097.52809050043,106449
1101.20627611025,107360
1106.10382596803,108359
1109.77196514487,108853
1113.43579870759,109532
1117.09532665617,110325
1120.75054899062,111263
1124.40146571093,111411
1128.04807681712,111795
1131.69038230917,113086
1135.32838218709,113659
1140.172351069,115452
1143.80030451395,116172
1147.42395234476,117006
1151.04329456145,118136
1154.658331164,118890
1158.26906215241,119876
1161.8754875267,121228
1165.47760728685,122135
1169.07542143287,123250
1173.86580933892,124722
1177.45357705197,125910
1181.03703915088,127160
1184.61619563566,128757
1188.19104650631,130648
1191.76159176283,132483
1195.32783140522,134362
1198.88976543347,136298
1202.44739384759,137992
1207.18420077777,140752
1210.73178275892,142442
1214.27505912594,144286
1217.81402987882,146381
1221.34869501757,148314
1224.87905454219,150359
1228.40510845267,152371
1231.92685674903,153819
1235.44429943125,155884
1240.12752538557,158469
1243.63492163481,159602
1247.13801226993,161121
1250.63679729091,162453
1254.13127669776,164041
1257.62145049048,165647
1261.10731866907,169056
1264.58888123353,171265
1268.06613818385,173003
1272.6957831623,176573
1276.16299367965,178337
1279.62589858286,180004
1283.08449787195,181667
1286.5387915469,183272
1289.98877960772,184319
1293.43446205441,185688
1296.87583888696,187117
1300.31291010539,187018
1304.88897410797,187839
1308.31599889342,188943
1311.73871806474,189198
1315.15713162192,189483
1318.57123956497,190010
1321.98104189389,189737
1325.38653860868,190192
1328.78772970934,189739
1332.18461519586,189548
1336.70709822258,189506
1340.09393727613,188979
1343.47647071555,188365
1346.85469854083,187685
1350.22862075199,186894
1353.59823734901,185441
1356.9635483319,184383
1360.32455370065,183202
1363.68125345528,182409
1368.15015550613,180955
1371.49680882778,180331
1374.8391565353,178980
1378.17719862868,177500
1381.51093510794,175395
1384.84036597306,172954
1388.16549122405,171830
1391.48631086091,169983
1394.80282488363,168523
1399.21814595862,167005
1402.52461354837,166226
1405.82677552399,165863
1409.12463188548,164805
1412.41818263283,164744
1415.70742776605,164973
1418.99236728514,164460
1422.2730011901,164280
1425.54932948093,164381
1429.91106958005,165165
1433.1773514379,164753
1436.43932768162,164659
1439.6969983112,165700
1442.95036332666,165623
1446.19942272798,165305
1449.44417651517,165452
1452.68462468823,165605
1456.99852463033,165324
1460.22892637041,164742
1463.45502249637,164411
1466.67681300819,163835
1469.89429790587,163459
1473.10747718943,162660
1476.31635085885,162127
1479.52091891415,161095
1482.72118135531,160743
1486.98150032154,159599
1490.17171632972,158937
1493.35762672377,157797
1496.53923150369,157041
1499.71653066948,156344
1502.88952422114,154731
1506.05821215866,153888
1509.22259448206,152646
1512.38267119132,151798
1516.58940918168,150135
1519.73943945797,149149
1522.88516412012,147645
1526.02658316814,145877
1529.16369660203,144680
1532.29650442179,143504
1535.42500662741,142030
1538.54920321891,139975
1541.66909419627,138942
1545.82225121076,136862
1548.93209575515,135029
1552.0376346854,133632
1555.13886800153,131676
1558.23579570352,129803
1561.32841779137,127777
1564.4167342651,126420
1567.50074512469,124743
1570.58045037016,122555
1574.68002640879,119430
1577.74968522127,117334
1580.81503841963,114984
1583.87608600385,112523
1586.93282797394,110959
1589.9852643299,108543
1593.03339507173,106227
1596.07722019942,104027
1599.11673971298,101724
1603.16273477575,98464
1606.19220785634,96406
1609.21737532279,94200
1612.23823717512,91872
1615.25479341331,89619
1618.26704403737,87402
1621.27498904729,85026
1624.27862844309,83314
1627.27796222475,80588
1631.27037631165,77814
1634.25966366034,75181
1637.2446453949,72178
1640.22532151532,69686
1643.20169202161,66980
1646.17375691377,63979
1649.1415161918,60936
1652.10496985569,57919
1655.06411790546,55184
1659.00295101649,51609
1661.95205263328,49370
1664.89684863594,47356
1667.83733902446,44565
1670.77352379886,42284
1673.70540295912,38704
1676.63297650524,34461
1679.55624443724,30525
1682.4752067551,26455
1686.36045889027,21435
1689.26937477516,18146
1692.17398504592,15306
1695.07428970255,13251
1697.97028874504,11222
1700.8619821734,9818
##END=
