##TITLE=Column 1
##JCAMP-DX=4.24
##DATA TYPE=INFRARED SPECTRUM
##Method:,Column 1,Built-In Reference,,,Model Name,NIR-X-XX
##Host Date-Time:,27/10/20 @ 12:53:20,9/7/19 @ 16:39:9,,,GUI Version,2.4.4
##Header Version:,1,1,,,Tiva Version,2.1.0.67
##System Temp (C):,33.73,27.52,,,DLPC Version,2.0.0
##Detector Temp (C),0,0,,,UUID,DE:67:0C:88:67:19:47:21
##Humidity (%):,42.65,73.2,,,Main Board Version,D
##Lamp PD:,2432,2274
##Shift Vector Coefficients:,-6.85384978732833,0.0551332794684546,-0.000110731550088635
##Pixel to Wavelength Coefficients:,1790.66412099084,-0.917492857141292,-0.000239200785115314
##Serial Number:,925R021,925R021
##Scan Config Name:,Column 1,SystemTest
##Scan Config Type:,Column,Column
##Start wavelength (nm):,900,900
##End wavelength (nm):,1700,1700
##Pattern Pixel Width (nm):,7.03,7.03
##Exposure (ms):,0.635,0.635
##Digital Resolution:,228,228
##NPOINTS=228
##Num Repeats:,6,30
##PGA Gain:,64,64
##Total Measurement Time in sec:,1.8001699
##XUNITS=Wavelength(nm)
##YUNITS=Intensity
##FIRSTX=901.630473432251
##LASTX=1700.8619821734
##PEAK TABLE=X+(Y..Y)
901.630473432251,21475
905.531115772228,23468
909.427452498074,25362
913.319483609787,27819
917.207209107368,30465
921.090628990817,34315
924.969743260134,38207
930.13519799724,44657
934.004265833582,49848
937.869028055792,54274
941.72948466387,58417
945.585635657816,61604
949.43748103763,64562
953.285020803312,67527
957.128254954862,70561
960.967183492279,73127
966.07905725352,76898
969.907939357962,79205
973.732515848273,81941
977.552786724452,84290
981.368751986498,86478
985.180411634413,88399
988.987765668195,90462
992.790814087846,91379
996.589556893364,92885
1001.64784967874,94485
1005.43654605128,95187
1009.22093680969,95396
1013.00102195397,95324
1016.77680148412,96110
1020.54827540013,95981
1024.31544370202,96044
1028.07830638977,95875
1031.83686346339,95692
1036.8415752729,95029
1040.59008591354,94571
1044.33429094005,94153
1048.07419035243,93857
1051.80978415068,93506
1055.5410723348,92502
1059.26805490478,92299
1062.99073186063,91952
1066.70910320235,91754
1071.66023403599,91241
1075.36855894474,91331
1079.07257823935,91724
1082.77229191983,91879
1086.46769998618,91971
1090.1588024384,92050
1093.84559927648,92500
1097.52809050043,93295
1101.20627611025,93391
1106.10382596803,93949
1109.77196514487,94869
1113.43579870759,95529
1117.09532665617,95283
1120.75054899062,96230
1124.40146571093,96539
1128.04807681712,97138
1131.69038230917,97950
1135.32838218709,98402
1140.172351069,99585
1143.80030451395,100079
1147.42395234476,100798
1151.04329456145,101676
1154.658331164,102795
1158.26906215241,103254
1161.8754875267,104172
1165.47760728685,105611
1169.07542143287,105834
1173.86580933892,107486
1177.45357705197,109096
1181.03703915088,110137
1184.61619563566,111932
1188.19104650631,112946
1191.76159176283,114677
1195.32783140522,116284
1198.88976543347,118144
1202.44739384759,119856
1207.18420077777,122053
1210.73178275892,123826
1214.27505912594,125872
1217.81402987882,127451
1221.34869501757,129439
1224.87905454219,131286
1228.40510845267,133063
1231.92685674903,135132
1235.44429943125,136544
1240.12752538557,138858
1243.63492163481,140470
1247.13801226993,141447
1250.63679729091,142742
1254.13127669776,144189
1257.62145049048,146357
1261.10731866907,148336
1264.58888123353,150559
1268.06613818385,152885
1272.6957831623,155398
1276.16299367965,157021
1279.62589858286,158839
1283.08449787195,160433
1286.5387915469,161397
1289.98877960772,162430
1293.43446205441,163875
1296.87583888696,164302
1300.31291010539,164986
1304.88897410797,166021
1308.31599889342,166021
1311.73871806474,166778
1315.15713162192,166821
1318.57123956497,167326
1321.98104189389,166895
1325.38653860868,166934
1328.78772970934,167193
1332.18461519586,167114
1336.70709822258,166741
1340.09393727613,166321
1343.47647071555,165730
1346.85469854083,165306
1350.22862075199,164387
1353.59823734901,163326
1356.9635483319,161915
1360.32455370065,161511
1363.68125345528,160156
1368.15015550613,159614
1371.49680882778,158565
1374.8391565353,157818
1378.17719862868,156223
1381.51093510794,154579
1384.84036597306,152706
1388.16549122405,150763
1391.48631086091,149811
1394.80282488363,148784
1399.21814595862,147328
1402.52461354837,146565
1405.82677552399,146280
1409.12463188548,145789
1412.41818263283,145032
1415.70742776605,145072
1418.99236728514,145199
1422.2730011901,144984
1425.54932948093,145283
1429.91106958005,145251
1433.1773514379,145561
1436.43932768162,145846
1439.6969983112,145490
1442.95036332666,145472
1446.19942272798,146046
1449.44417651517,145834
1452.68462468823,145589
1456.99852463033,145351
1460.22892637041,145342
1463.45502249637,144915
1466.67681300819,144056
1469.89429790587,143802
1473.10747718943,143280
1476.31635085885,142719
1479.52091891415,141739
1482.72118135531,141037
1486.98150032154,140341
1490.17171632972,139803
1493.35762672377,138802
1496.53923150369,137902
1499.71653066948,137344
1502.88952422114,136235
1506.05821215866,135449
1509.22259448206,134634
1512.38267119132,133857
1516.58940918168,132737
1519.73943945797,131383
1522.88516412012,130136
1526.02658316814,129044
1529.16369660203,127721
1532.29650442179,126886
1535.42500662741,125441
1538.54920321891,124092
1541.66909419627,123027
1545.82225121076,121061
1548.93209575515,119946
1552.0376346854,118750
1555.13886800153,117043
1558.23579570352,115649
1561.32841779137,114592
1564.4167342651,112710
1567.50074512469,111035
1570.58045037016,109370
1574.68002640879,106755
1577.74968522127,104651
1580.81503841963,103514
1583.87608600385,101176
1586.93282797394,99073
1589.9852643299,97497
1593.03339507173,95448
1596.07722019942,93828
1599.11673971298,91589
1603.16273477575,89321
1606.19220785634,87295
1609.21737532279,85629
1612.23823717512,83145
1615.25479341331,81307
1618.26704403737,79758
1621.27498904729,77616
1624.27862844309,75842
1627.27796222475,73872
1631.27037631165,71374
1634.25966366034,69087
1637.2446453949,66570
1640.22532151532,64166
1643.20169202161,61388
1646.17375691377,58848
1649.1415161918,56057
1652.10496985569,53507
1655.06411790546,50960
1659.00295101649,47938
1661.95205263328,46130
1664.89684863594,43851
1667.83733902446,42027
1670.77352379886,39258
1673.70540295912,35557
1676.63297650524,31835
1679.55624443724,28187
1682.4752067551,23853
1686.36045889027,19286
1689.26937477516,16535
1692.17398504592,13811
1695.07428970255,12183
1697.97028874504,10465
1700.8619821734,8935
##END=
