##TITLE=Column 1
##JCAMP-DX=4.24
##DATA TYPE=INFRARED SPECTRUM
##Method:,Column 1,Built-In Reference,,,Model Name,NIR-X-XX
##Host Date-Time:,27/10/20 @ 14:36:47,9/7/19 @ 16:39:9,,,GUI Version,2.4.4
##Header Version:,1,1,,,Tiva Version,2.1.0.67
##System Temp (C):,54.04,27.52,,,DLPC Version,2.0.0
##Detector Temp (C),0,0,,,UUID,00:00:00:00:00:00:00:00
##Humidity (%):,13.86,73.2,,,Main Board Version,D
##Lamp PD:,2724,2274
##Shift Vector Coefficients:,-6.85384978732833,0.0551332794684546,-0.000110731550088635
##Pixel to Wavelength Coefficients:,1790.66412099084,-0.917492857141292,-0.000239200785115314
##Serial Number:,925R021,925R021
##Scan Config Name:,Column 1,SystemTest
##Scan Config Type:,Column,Column
##Start wavelength (nm):,900,900
##End wavelength (nm):,1700,1700
##Pattern Pixel Width (nm):,7.03,7.03
##Exposure (ms):,0.635,0.635
##Digital Resolution:,228,228
##NPOINTS=228
##Num Repeats:,6,30
##PGA Gain:,64,64
##Total Measurement Time in sec:,1.7950293
##XUNITS=Wavelength(nm)
##YUNITS=Intensity
##FIRSTX=901.630473432251
##LASTX=1700.8619821734
##PEAK TABLE=X+(Y..Y)
901.630473432251,32965
905.531115772228,35830
909.427452498074,37875
913.319483609787,40192
917.207209107368,43181
921.090628990817,46395
924.969743260134,51530
930.13519799724,58457
934.004265833582,64054
937.869028055792,70462
941.72948466387,76261
945.585635657816,80861
949.43748103763,84612
953.285020803312,88732
957.128254954862,92085
960.967183492279,94951
966.07905725352,98963
969.907939357962,102088
973.732515848273,104904
977.552786724452,107191
981.368751986498,109475
985.180411634413,111786
988.987765668195,114158
992.790814087846,115312
996.589556893364,116446
1001.64784967874,118843
1005.43654605128,119688
1009.22093680969,120335
1013.00102195397,121094
1016.77680148412,121256
1020.54827540013,121546
1024.31544370202,121915
1028.07830638977,122014
1031.83686346339,121590
1036.8415752729,121580
1040.59008591354,121258
1044.33429094005,121255
1048.07419035243,121102
1051.80978415068,120886
1055.5410723348,120864
1059.26805490478,120597
1062.99073186063,121015
1066.70910320235,121048
1071.66023403599,121772
1075.36855894474,122144
1079.07257823935,123227
1082.77229191983,123960
1086.46769998618,124868
1090.1588024384,125812
1093.84559927648,127237
1097.52809050043,128126
1101.20627611025,129672
1106.10382596803,131549
1109.77196514487,133762
1113.43579870759,134638
1117.09532665617,135864
1120.75054899062,137359
1124.40146571093,138263
1128.04807681712,139191
1131.69038230917,140627
1135.32838218709,142118
1140.172351069,144247
1143.80030451395,145375
1147.42395234476,146777
1151.04329456145,147945
1154.658331164,149398
1158.26906215241,150784
1161.8754875267,151861
1165.47760728685,153286
1169.07542143287,154898
1173.86580933892,156529
1177.45357705197,157989
1181.03703915088,159462
1184.61619563566,161464
1188.19104650631,162922
1191.76159176283,164838
1195.32783140522,166977
1198.88976543347,168830
1202.44739384759,171135
1207.18420077777,173811
1210.73178275892,175687
1214.27505912594,177749
1217.81402987882,180199
1221.34869501757,181834
1224.87905454219,184240
1228.40510845267,186038
1231.92685674903,187870
1235.44429943125,189650
1240.12752538557,192044
1243.63492163481,193837
1247.13801226993,195072
1250.63679729091,196235
1254.13127669776,198468
1257.62145049048,201228
1261.10731866907,204283
1264.58888123353,207050
1268.06613818385,209651
1272.6957831623,212697
1276.16299367965,215244
1279.62589858286,217655
1283.08449787195,219210
1286.5387915469,220349
1289.98877960772,222071
1293.43446205441,223796
1296.87583888696,224839
1300.31291010539,225477
1304.88897410797,226889
1308.31599889342,227608
1311.73871806474,228168
1315.15713162192,228456
1318.57123956497,229002
1321.98104189389,229074
1325.38653860868,228970
1328.78772970934,229202
1332.18461519586,229305
1336.70709822258,228697
1340.09393727613,228428
1343.47647071555,227715
1346.85469854083,226506
1350.22862075199,225831
1353.59823734901,224325
1356.9635483319,222668
1360.32455370065,221850
1363.68125345528,220299
1368.15015550613,219009
1371.49680882778,217887
1374.8391565353,216754
1378.17719862868,214527
1381.51093510794,212080
1384.84036597306,209475
1388.16549122405,207673
1391.48631086091,205503
1394.80282488363,203613
1399.21814595862,201705
1402.52461354837,200955
1405.82677552399,200133
1409.12463188548,199566
1412.41818263283,198746
1415.70742776605,198526
1418.99236728514,198353
1422.2730011901,198088
1425.54932948093,198333
1429.91106958005,198517
1433.1773514379,198562
1436.43932768162,198004
1439.6969983112,198735
1442.95036332666,198536
1446.19942272798,198832
1449.44417651517,199138
1452.68462468823,198487
1456.99852463033,198384
1460.22892637041,197891
1463.45502249637,197000
1466.67681300819,196242
1469.89429790587,195485
1473.10747718943,194896
1476.31635085885,194444
1479.52091891415,193147
1482.72118135531,192169
1486.98150032154,191112
1490.17171632972,189555
1493.35762672377,188606
1496.53923150369,187285
1499.71653066948,186051
1502.88952422114,184742
1506.05821215866,183380
1509.22259448206,182203
1512.38267119132,180608
1516.58940918168,178501
1519.73943945797,177029
1522.88516412012,175546
1526.02658316814,173752
1529.16369660203,171925
1532.29650442179,170070
1535.42500662741,168411
1538.54920321891,166325
1541.66909419627,164644
1545.82225121076,162059
1548.93209575515,160321
1552.0376346854,157629
1555.13886800153,155805
1558.23579570352,153680
1561.32841779137,151370
1564.4167342651,148706
1567.50074512469,146376
1570.58045037016,143471
1574.68002640879,140142
1577.74968522127,137121
1580.81503841963,134405
1583.87608600385,131438
1586.93282797394,128504
1589.9852643299,125642
1593.03339507173,122782
1596.07722019942,119768
1599.11673971298,116831
1603.16273477575,113003
1606.19220785634,110093
1609.21737532279,107274
1612.23823717512,103950
1615.25479341331,101559
1618.26704403737,98980
1621.27498904729,96053
1624.27862844309,92852
1627.27796222475,90311
1631.27037631165,86651
1634.25966366034,83701
1637.2446453949,80322
1640.22532151532,77266
1643.20169202161,74179
1646.17375691377,71163
1649.1415161918,67330
1652.10496985569,64648
1655.06411790546,61613
1659.00295101649,58462
1661.95205263328,56195
1664.89684863594,54532
1667.83733902446,52702
1670.77352379886,51620
1673.70540295912,49267
1676.63297650524,47504
1679.55624443724,45096
1682.4752067551,42323
1686.36045889027,38641
1689.26937477516,35477
1692.17398504592,31920
1695.07428970255,28933
1697.97028874504,24866
1700.8619821734,21663
##END=
