***Scan Config Information***,,,,,,,***Reference Scan Information***,,,,,,,
Scan Config Name:,Column 1,,,,,,Scan Config Name:,Built-in Factory Reference,,,,,,,,
Scan Config Type:,Slew,Num Section:,1,,,,Scan Config Type:,Slew,Num Section:,1,,,,,
Section Config Type:,Column,,,,,,Section Config Type:,Column,,,,,,,
Start Wavelength (nm):,900,,,,,,Start Wavelength (nm):,900,,,,,,,
End Wavelength (nm):,1700,,,,,,End Wavelength (nm):,1700,,,,,,,
Pattern Width (nm):,7.03,,,,,,Pattern Width (nm):,7.03,,,,,,,
Exposure (ms):,0.635,,,,,,Exposure (ms):,0.635,,,,,,,
Digital Resolution:,228,,,,,,Digital Resolution:,228,,,,,,,
Num Repeats:,6,,,,,,Num Repeats:,30,,,,,,,
PGA Gain:,64,,,,,,PGA Gain:,64,,,,,,,
System Temp (C):,54.01,,,,,,System Temp (C):,27.52,,,,,,,
Humidity (%):,13.86,,,,,,Humidity (%):,73.2,,,,,,,
Lamp Intensity:,2724,,,,,,Lamp Intensity:,2274,,,,,,,
Data Date-Time:,27/10/20 @ 14:36:25,,,,,,Data Date-Time:,9/7/19 @ 16:39:9,,,,,,,
Total Measurement Time in sec:,1.7881883,,,,,,,,,,,,,,
,,,,,,,,,,,,,,,
***General Information***,,,,,,,***Calibration Coefficients***,,,,,,,
Model Name:,NIR-X-XX,,,,,,Shift Vector Coefficients:,-6.85384978732833,0.0551332794684546,-0.000110731550088635,,,,,
Serial Number:,925R021,(95UB122GC1A925R021),,,,,Pixel to Wavelength Coefficients:,1790.66412099084,-0.917492857141292,-0.000239200785115314,,,,,
GUI Version:,2.4.4,,,,,,Versions (Cal/Ref/Cfg):,1,3,1,,,,,
TIVA Version:,2.1.0.67,,,,,,***Lamp Usage * **,,,,,,,
DLPC Version:,2.0.0,,,,,,Total Time(HH:MM:SS):,NA,,,,,,
UUID:,00:00:00:00:00:00:00:00,,,,,,***Device/Error Status***,,,,,,,
Main Board Version:,D,,,,,,Device Status:,0x00000001,,,,,,
Detector Board Version:,B,,,,,,Error status:,0x00000000,Error Code:,0x00000000000000000000000000000000,,,,
,,,,,,,,,,,,,,,
***Scan Data***,,,,,,,,,,,,,,
Wavelength (nm),Sample Signal (unitless)
901.630473432251,28481
905.531115772228,30572
909.427452498074,32602
913.319483609787,35109
917.207209107368,37661
921.090628990817,41116
924.969743260134,45691
930.13519799724,52041
934.004265833582,57767
937.869028055792,63418
941.72948466387,68871
945.585635657816,72971
949.43748103763,77042
953.285020803312,80181
957.128254954862,84139
960.967183492279,86789
966.07905725352,90918
969.907939357962,93444
973.732515848273,96302
977.552786724452,99057
981.368751986498,100703
985.180411634413,103145
988.987765668195,104303
992.790814087846,106114
996.589556893364,107453
1001.64784967874,109365
1005.43654605128,109973
1009.22093680969,110939
1013.00102195397,111500
1016.77680148412,111663
1020.54827540013,111514
1024.31544370202,111586
1028.07830638977,110824
1031.83686346339,111149
1036.8415752729,110697
1040.59008591354,110431
1044.33429094005,110242
1048.07419035243,109990
1051.80978415068,109856
1055.5410723348,109364
1059.26805490478,109096
1062.99073186063,108795
1066.70910320235,108810
1071.66023403599,108776
1075.36855894474,109281
1079.07257823935,109822
1082.77229191983,110518
1086.46769998618,110733
1090.1588024384,111868
1093.84559927648,112209
1097.52809050043,113267
1101.20627611025,114139
1106.10382596803,115572
1109.77196514487,116853
1113.43579870759,117933
1117.09532665617,119056
1120.75054899062,119600
1124.40146571093,120476
1128.04807681712,121177
1131.69038230917,122141
1135.32838218709,123816
1140.172351069,125555
1143.80030451395,127001
1147.42395234476,127657
1151.04329456145,128965
1154.658331164,130095
1158.26906215241,131236
1161.8754875267,132619
1165.47760728685,133817
1169.07542143287,135045
1173.86580933892,136443
1177.45357705197,138109
1181.03703915088,139513
1184.61619563566,141113
1188.19104650631,142705
1191.76159176283,145120
1195.32783140522,146936
1198.88976543347,148752
1202.44739384759,150691
1207.18420077777,153769
1210.73178275892,155819
1214.27505912594,157463
1217.81402987882,159600
1221.34869501757,162360
1224.87905454219,164325
1228.40510845267,166106
1231.92685674903,167577
1235.44429943125,169665
1240.12752538557,171720
1243.63492163481,173586
1247.13801226993,175084
1250.63679729091,176210
1254.13127669776,178077
1257.62145049048,180567
1261.10731866907,183298
1264.58888123353,185941
1268.06613818385,188333
1272.6957831623,191667
1276.16299367965,193795
1279.62589858286,195240
1283.08449787195,196840
1286.5387915469,198395
1289.98877960772,199892
1293.43446205441,201162
1296.87583888696,202158
1300.31291010539,203369
1304.88897410797,203871
1308.31599889342,204715
1311.73871806474,205199
1315.15713162192,205323
1318.57123956497,205994
1321.98104189389,205981
1325.38653860868,206374
1328.78772970934,206222
1332.18461519586,206132
1336.70709822258,205920
1340.09393727613,205726
1343.47647071555,204931
1346.85469854083,204388
1350.22862075199,203138
1353.59823734901,201886
1356.9635483319,200724
1360.32455370065,199405
1363.68125345528,198872
1368.15015550613,197598
1371.49680882778,196638
1374.8391565353,195439
1378.17719862868,193383
1381.51093510794,191056
1384.84036597306,189140
1388.16549122405,187444
1391.48631086091,185476
1394.80282488363,184163
1399.21814595862,182843
1402.52461354837,181886
1405.82677552399,181254
1409.12463188548,180717
1412.41818263283,180356
1415.70742776605,180336
1418.99236728514,180770
1422.2730011901,180259
1425.54932948093,180803
1429.91106958005,181254
1433.1773514379,180923
1436.43932768162,181093
1439.6969983112,181361
1442.95036332666,181655
1446.19942272798,181580
1449.44417651517,181738
1452.68462468823,181666
1456.99852463033,181034
1460.22892637041,180886
1463.45502249637,180535
1466.67681300819,179770
1469.89429790587,179418
1473.10747718943,178696
1476.31635085885,177548
1479.52091891415,177189
1482.72118135531,176356
1486.98150032154,175111
1490.17171632972,174509
1493.35762672377,173311
1496.53923150369,172190
1499.71653066948,171455
1502.88952422114,170206
1506.05821215866,168741
1509.22259448206,167672
1512.38267119132,166484
1516.58940918168,164641
1519.73943945797,163182
1522.88516412012,161762
1526.02658316814,160402
1529.16369660203,158578
1532.29650442179,157328
1535.42500662741,155406
1538.54920321891,153818
1541.66909419627,152049
1545.82225121076,150066
1548.93209575515,148193
1552.0376346854,146498
1555.13886800153,144189
1558.23579570352,142422
1561.32841779137,140436
1564.4167342651,137891
1567.50074512469,135914
1570.58045037016,133874
1574.68002640879,130578
1577.74968522127,128353
1580.81503841963,125493
1583.87608600385,123168
1586.93282797394,120442
1589.9852643299,118290
1593.03339507173,115708
1596.07722019942,113234
1599.11673971298,110995
1603.16273477575,107418
1606.19220785634,105236
1609.21737532279,102997
1612.23823717512,100132
1615.25479341331,97616
1618.26704403737,95412
1621.27498904729,92690
1624.27862844309,90233
1627.27796222475,87843
1631.27037631165,84731
1634.25966366034,81928
1637.2446453949,79063
1640.22532151532,76286
1643.20169202161,73260
1646.17375691377,70992
1649.1415161918,68117
1652.10496985569,64970
1655.06411790546,62222
1659.00295101649,59188
1661.95205263328,56942
1664.89684863594,55618
1667.83733902446,53897
1670.77352379886,52500
1673.70540295912,50643
1676.63297650524,48840
1679.55624443724,46126
1682.4752067551,43471
1686.36045889027,40011
1689.26937477516,36433
1692.17398504592,33359
1695.07428970255,29873
1697.97028874504,26111
1700.8619821734,22409
