***Scan Config Information***,,,,,,,***Reference Scan Information***,,,,,,,
Scan Config Name:,Column 1,,,,,,Scan Config Name:,Built-in Factory Reference,,,,,,,,
Scan Config Type:,Slew,Num Section:,1,,,,Scan Config Type:,Slew,Num Section:,1,,,,,
Section Config Type:,Column,,,,,,Section Config Type:,Column,,,,,,,
Start Wavelength (nm):,900,,,,,,Start Wavelength (nm):,900,,,,,,,
End Wavelength (nm):,1700,,,,,,End Wavelength (nm):,1700,,,,,,,
Pattern Width (nm):,7.03,,,,,,Pattern Width (nm):,7.03,,,,,,,
Exposure (ms):,0.635,,,,,,Exposure (ms):,0.635,,,,,,,
Digital Resolution:,228,,,,,,Digital Resolution:,228,,,,,,,
Num Repeats:,6,,,,,,Num Repeats:,30,,,,,,,
PGA Gain:,64,,,,,,PGA Gain:,64,,,,,,,
System Temp (C):,54.04,,,,,,System Temp (C):,27.52,,,,,,,
Humidity (%):,13.86,,,,,,Humidity (%):,73.2,,,,,,,
Lamp Intensity:,2724,,,,,,Lamp Intensity:,2274,,,,,,,
Data Date-Time:,27/10/20 @ 14:36:51,,,,,,Data Date-Time:,9/7/19 @ 16:39:9,,,,,,,
Total Measurement Time in sec:,1.788188,,,,,,,,,,,,,,
,,,,,,,,,,,,,,,
***General Information***,,,,,,,***Calibration Coefficients***,,,,,,,
Model Name:,NIR-X-XX,,,,,,Shift Vector Coefficients:,-6.85384978732833,0.0551332794684546,-0.000110731550088635,,,,,
Serial Number:,925R021,(95UB122GC1A925R021),,,,,Pixel to Wavelength Coefficients:,1790.66412099084,-0.917492857141292,-0.000239200785115314,,,,,
GUI Version:,2.4.4,,,,,,Versions (Cal/Ref/Cfg):,1,3,1,,,,,
TIVA Version:,2.1.0.67,,,,,,***Lamp Usage * **,,,,,,,
DLPC Version:,2.0.0,,,,,,Total Time(HH:MM:SS):,NA,,,,,,
UUID:,00:00:00:00:00:00:00:00,,,,,,***Device/Error Status***,,,,,,,
Main Board Version:,D,,,,,,Device Status:,0x00000001,,,,,,
Detector Board Version:,B,,,,,,Error status:,0x00000000,Error Code:,0x00000000000000000000000000000000,,,,
,,,,,,,,,,,,,,,
***Scan Data***,,,,,,,,,,,,,,
Wavelength (nm),Sample Signal (unitless)
901.630473432251,36778
905.531115772228,39340
909.427452498074,42782
913.319483609787,46223
917.207209107368,50317
921.090628990817,55220
924.969743260134,61623
930.13519799724,71389
934.004265833582,79313
937.869028055792,87698
941.72948466387,95156
945.585635657816,101957
949.43748103763,108623
953.285020803312,114220
957.128254954862,119410
960.967183492279,124252
966.07905725352,130643
969.907939357962,135419
973.732515848273,139693
977.552786724452,143850
981.368751986498,147333
985.180411634413,150483
988.987765668195,153573
992.790814087846,156156
996.589556893364,158388
1001.64784967874,161140
1005.43654605128,162594
1009.22093680969,163524
1013.00102195397,164153
1016.77680148412,165398
1020.54827540013,165180
1024.31544370202,164877
1028.07830638977,164883
1031.83686346339,164543
1036.8415752729,163835
1040.59008591354,163293
1044.33429094005,162523
1048.07419035243,161487
1051.80978415068,160581
1055.5410723348,159897
1059.26805490478,159107
1062.99073186063,158347
1066.70910320235,158369
1071.66023403599,157964
1075.36855894474,157566
1079.07257823935,157891
1082.77229191983,158353
1086.46769998618,158555
1090.1588024384,159008
1093.84559927648,159673
1097.52809050043,160187
1101.20627611025,161359
1106.10382596803,162100
1109.77196514487,163164
1113.43579870759,164583
1117.09532665617,165757
1120.75054899062,166758
1124.40146571093,167579
1128.04807681712,168670
1131.69038230917,169999
1135.32838218709,171129
1140.172351069,173196
1143.80030451395,174293
1147.42395234476,176484
1151.04329456145,177681
1154.658331164,179440
1158.26906215241,181271
1161.8754875267,182896
1165.47760728685,184537
1169.07542143287,186466
1173.86580933892,188797
1177.45357705197,190666
1181.03703915088,193196
1184.61619563566,195809
1188.19104650631,198433
1191.76159176283,201584
1195.32783140522,204561
1198.88976543347,207673
1202.44739384759,210859
1207.18420077777,215565
1210.73178275892,218500
1214.27505912594,221905
1217.81402987882,225155
1221.34869501757,228142
1224.87905454219,231395
1228.40510845267,234795
1231.92685674903,237553
1235.44429943125,240826
1240.12752538557,244389
1243.63492163481,246984
1247.13801226993,248978
1250.63679729091,251382
1254.13127669776,253786
1257.62145049048,257547
1261.10731866907,261813
1264.58888123353,265921
1268.06613818385,269878
1272.6957831623,273887
1276.16299367965,277289
1279.62589858286,279846
1283.08449787195,282599
1286.5387915469,284946
1289.98877960772,286815
1293.43446205441,288773
1296.87583888696,290458
1300.31291010539,291795
1304.88897410797,293347
1308.31599889342,294050
1311.73871806474,295454
1315.15713162192,295329
1318.57123956497,295731
1321.98104189389,296384
1325.38653860868,296174
1328.78772970934,296571
1332.18461519586,295977
1336.70709822258,295515
1340.09393727613,295594
1343.47647071555,294624
1346.85469854083,293685
1350.22862075199,292319
1353.59823734901,290534
1356.9635483319,288618
1360.32455370065,286886
1363.68125345528,285733
1368.15015550613,284444
1371.49680882778,282104
1374.8391565353,280553
1378.17719862868,277559
1381.51093510794,274277
1384.84036597306,271202
1388.16549122405,269010
1391.48631086091,267110
1394.80282488363,264582
1399.21814595862,263006
1402.52461354837,262286
1405.82677552399,260992
1409.12463188548,260194
1412.41818263283,259893
1415.70742776605,259864
1418.99236728514,259687
1422.2730011901,259706
1425.54932948093,259767
1429.91106958005,260576
1433.1773514379,260532
1436.43932768162,260235
1439.6969983112,260768
1442.95036332666,261113
1446.19942272798,261252
1449.44417651517,260984
1452.68462468823,260953
1456.99852463033,260490
1460.22892637041,260071
1463.45502249637,258543
1466.67681300819,258113
1469.89429790587,257552
1473.10747718943,256794
1476.31635085885,255812
1479.52091891415,254558
1482.72118135531,253616
1486.98150032154,251530
1490.17171632972,250328
1493.35762672377,249086
1496.53923150369,247303
1499.71653066948,245666
1502.88952422114,244197
1506.05821215866,242650
1509.22259448206,241201
1512.38267119132,239184
1516.58940918168,236572
1519.73943945797,235353
1522.88516412012,233252
1526.02658316814,230702
1529.16369660203,228879
1532.29650442179,226768
1535.42500662741,224839
1538.54920321891,222570
1541.66909419627,220197
1545.82225121076,216628
1548.93209575515,214554
1552.0376346854,212208
1555.13886800153,209231
1558.23579570352,206700
1561.32841779137,203982
1564.4167342651,201728
1567.50074512469,198874
1570.58045037016,195445
1574.68002640879,191181
1577.74968522127,188161
1580.81503841963,184870
1583.87608600385,181791
1586.93282797394,178234
1589.9852643299,174903
1593.03339507173,171803
1596.07722019942,168517
1599.11673971298,165360
1603.16273477575,160387
1606.19220785634,157388
1609.21737532279,154213
1612.23823717512,150643
1615.25479341331,147564
1618.26704403737,144233
1621.27498904729,141056
1624.27862844309,137716
1627.27796222475,134237
1631.27037631165,129906
1634.25966366034,126186
1637.2446453949,122504
1640.22532151532,118942
1643.20169202161,114764
1646.17375691377,111168
1649.1415161918,107408
1652.10496985569,103464
1655.06411790546,99883
1659.00295101649,95549
1661.95205263328,92594
1664.89684863594,89826
1667.83733902446,87549
1670.77352379886,84870
1673.70540295912,82161
1676.63297650524,78889
1679.55624443724,75100
1682.4752067551,70786
1686.36045889027,64923
1689.26937477516,59855
1692.17398504592,54177
1695.07428970255,48603
1697.97028874504,42700
1700.8619821734,36792
