##TITLE=Column 1
##JCAMP-DX=4.24
##DATA TYPE=INFRARED SPECTRUM
##Method:,Column 1,Built-In Reference,,,Model Name,NIR-X-XX
##Host Date-Time:,27/10/20 @ 14:35:51,9/7/19 @ 16:39:9,,,GUI Version,2.4.4
##Header Version:,1,1,,,Tiva Version,2.1.0.67
##System Temp (C):,53.96,27.52,,,DLPC Version,2.0.0
##Detector Temp (C),0,0,,,UUID,00:00:00:00:00:00:00:00
##Humidity (%):,13.86,73.2,,,Main Board Version,D
##Lamp PD:,2724,2274
##Shift Vector Coefficients:,-6.85384978732833,0.0551332794684546,-0.000110731550088635
##Pixel to Wavelength Coefficients:,1790.66412099084,-0.917492857141292,-0.000239200785115314
##Serial Number:,925R021,925R021
##Scan Config Name:,Column 1,SystemTest
##Scan Config Type:,Column,Column
##Start wavelength (nm):,900,900
##End wavelength (nm):,1700,1700
##Pattern Pixel Width (nm):,7.03,7.03
##Exposure (ms):,0.635,0.635
##Digital Resolution:,228,228
##NPOINTS=228
##Num Repeats:,6,30
##PGA Gain:,64,64
##Total Measurement Time in sec:,1.8041627
##XUNITS=Wavelength(nm)
##YUNITS=Intensity
##FIRSTX=901.630473432251
##LASTX=1700.8619821734
##PEAK TABLE=X+(Y..Y)
901.630473432251,25727
905.531115772228,27523
909.427452498074,29341
913.319483609787,31535
917.207209107368,33846
921.090628990817,36901
924.969743260134,40892
930.13519799724,46578
934.004265833582,51296
937.869028055792,56471
941.72948466387,61130
945.585635657816,65163
949.43748103763,68756
953.285020803312,72233
957.128254954862,75155
960.967183492279,77674
966.07905725352,81535
969.907939357962,84121
973.732515848273,86406
977.552786724452,88781
981.368751986498,91268
985.180411634413,92518
988.987765668195,94465
992.790814087846,96013
996.589556893364,97114
1001.64784967874,98386
1005.43654605128,99439
1009.22093680969,100112
1013.00102195397,100634
1016.77680148412,100903
1020.54827540013,100847
1024.31544370202,100874
1028.07830638977,100569
1031.83686346339,100712
1036.8415752729,100152
1040.59008591354,99988
1044.33429094005,99837
1048.07419035243,99415
1051.80978415068,98882
1055.5410723348,98806
1059.26805490478,98584
1062.99073186063,98782
1066.70910320235,98696
1071.66023403599,99062
1075.36855894474,99455
1079.07257823935,99810
1082.77229191983,100272
1086.46769998618,100796
1090.1588024384,101579
1093.84559927648,102089
1097.52809050043,103132
1101.20627611025,103872
1106.10382596803,105127
1109.77196514487,106197
1113.43579870759,107130
1117.09532665617,108331
1120.75054899062,108968
1124.40146571093,110265
1128.04807681712,111087
1131.69038230917,112230
1135.32838218709,112809
1140.172351069,113955
1143.80030451395,115452
1147.42395234476,115995
1151.04329456145,117519
1154.658331164,118297
1158.26906215241,119045
1161.8754875267,119948
1165.47760728685,121434
1169.07542143287,122627
1173.86580933892,123620
1177.45357705197,124627
1181.03703915088,125972
1184.61619563566,127706
1188.19104650631,128939
1191.76159176283,130455
1195.32783140522,132491
1198.88976543347,134180
1202.44739384759,135649
1207.18420077777,138223
1210.73178275892,139908
1214.27505912594,141522
1217.81402987882,143448
1221.34869501757,145443
1224.87905454219,146863
1228.40510845267,148654
1231.92685674903,150582
1235.44429943125,152143
1240.12752538557,154310
1243.63492163481,155870
1247.13801226993,156601
1250.63679729091,157974
1254.13127669776,159815
1257.62145049048,161871
1261.10731866907,164374
1264.58888123353,166932
1268.06613818385,168960
1272.6957831623,171824
1276.16299367965,173540
1279.62589858286,175655
1283.08449787195,176640
1286.5387915469,178017
1289.98877960772,178803
1293.43446205441,180329
1296.87583888696,181209
1300.31291010539,182078
1304.88897410797,183258
1308.31599889342,183311
1311.73871806474,183776
1315.15713162192,184353
1318.57123956497,184398
1321.98104189389,184599
1325.38653860868,184448
1328.78772970934,184516
1332.18461519586,184358
1336.70709822258,184724
1340.09393727613,183790
1343.47647071555,183403
1346.85469854083,182480
1350.22862075199,181720
1353.59823734901,180947
1356.9635483319,179156
1360.32455370065,178587
1363.68125345528,177416
1368.15015550613,176616
1371.49680882778,175648
1374.8391565353,174343
1378.17719862868,172183
1381.51093510794,170275
1384.84036597306,168481
1388.16549122405,166353
1391.48631086091,165098
1394.80282488363,163345
1399.21814595862,162493
1402.52461354837,161421
1405.82677552399,160668
1409.12463188548,160189
1412.41818263283,159659
1415.70742776605,159300
1418.99236728514,159332
1422.2730011901,159002
1425.54932948093,158931
1429.91106958005,159023
1433.1773514379,159130
1436.43932768162,158894
1439.6969983112,159082
1442.95036332666,159065
1446.19942272798,159441
1449.44417651517,159221
1452.68462468823,158952
1456.99852463033,158874
1460.22892637041,158470
1463.45502249637,157833
1466.67681300819,157032
1469.89429790587,156537
1473.10747718943,155944
1476.31635085885,155282
1479.52091891415,154199
1482.72118135531,153435
1486.98150032154,152349
1490.17171632972,151981
1493.35762672377,150694
1496.53923150369,149842
1499.71653066948,148889
1502.88952422114,148463
1506.05821215866,147114
1509.22259448206,145722
1512.38267119132,144608
1516.58940918168,142837
1519.73943945797,142222
1522.88516412012,140627
1526.02658316814,139557
1529.16369660203,138148
1532.29650442179,136977
1535.42500662741,135805
1538.54920321891,134010
1541.66909419627,132596
1545.82225121076,130378
1548.93209575515,129424
1552.0376346854,127703
1555.13886800153,125518
1558.23579570352,123918
1561.32841779137,122196
1564.4167342651,120446
1567.50074512469,118541
1570.58045037016,116829
1574.68002640879,113605
1577.74968522127,111826
1580.81503841963,109681
1583.87608600385,107064
1586.93282797394,105338
1589.9852643299,103132
1593.03339507173,100640
1596.07722019942,98846
1599.11673971298,96832
1603.16273477575,93954
1606.19220785634,91804
1609.21737532279,89443
1612.23823717512,87207
1615.25479341331,84804
1618.26704403737,82902
1621.27498904729,80902
1624.27862844309,78660
1627.27796222475,76539
1631.27037631165,73803
1634.25966366034,71236
1637.2446453949,68984
1640.22532151532,66501
1643.20169202161,64635
1646.17375691377,62309
1649.1415161918,60017
1652.10496985569,57482
1655.06411790546,55236
1659.00295101649,52597
1661.95205263328,51086
1664.89684863594,49246
1667.83733902446,47589
1670.77352379886,46085
1673.70540295912,44659
1676.63297650524,42101
1679.55624443724,39924
1682.4752067551,37463
1686.36045889027,34147
1689.26937477516,31345
1692.17398504592,28589
1695.07428970255,25289
1697.97028874504,22313
1700.8619821734,19323
##END=
