##TITLE=Column 1
##JCAMP-DX=4.24
##DATA TYPE=INFRARED SPECTRUM
##Method:,Column 1,Built-In Reference,,,Model Name,NIR-X-XX
##Host Date-Time:,27/10/20 @ 14:36:3,9/7/19 @ 16:39:9,,,GUI Version,2.4.4
##Header Version:,1,1,,,Tiva Version,2.1.0.67
##System Temp (C):,53.97,27.52,,,DLPC Version,2.0.0
##Detector Temp (C),0,0,,,UUID,00:00:00:00:00:00:00:00
##Humidity (%):,13.86,73.2,,,Main Board Version,D
##Lamp PD:,2723,2274
##Shift Vector Coefficients:,-6.85384978732833,0.0551332794684546,-0.000110731550088635
##Pixel to Wavelength Coefficients:,1790.66412099084,-0.917492857141292,-0.000239200785115314
##Serial Number:,925R021,925R021
##Scan Config Name:,Column 1,SystemTest
##Scan Config Type:,Column,Column
##Start wavelength (nm):,900,900
##End wavelength (nm):,1700,1700
##Pattern Pixel Width (nm):,7.03,7.03
##Exposure (ms):,0.635,0.635
##Digital Resolution:,228,228
##NPOINTS=228
##Num Repeats:,6,30
##PGA Gain:,64,64
##Total Measurement Time in sec:,1.795176
##XUNITS=Wavelength(nm)
##YUNITS=Intensity
##FIRSTX=901.630473432251
##LASTX=1700.8619821734
##PEAK TABLE=X+(Y..Y)
901.630473432251,25949
905.531115772228,28293
909.427452498074,29750
913.319483609787,31960
917.207209107368,34998
921.090628990817,38143
924.969743260134,42220
930.13519799724,48374
934.004265833582,53569
937.869028055792,58972
941.72948466387,63600
945.585635657816,68177
949.43748103763,71908
953.285020803312,74910
957.128254954862,77654
960.967183492279,80409
966.07905725352,84007
969.907939357962,86789
973.732515848273,89303
977.552786724452,91590
981.368751986498,93638
985.180411634413,95224
988.987765668195,97363
992.790814087846,98262
996.589556893364,99443
1001.64784967874,101069
1005.43654605128,101795
1009.22093680969,102358
1013.00102195397,102940
1016.77680148412,102904
1020.54827540013,103323
1024.31544370202,103545
1028.07830638977,102871
1031.83686346339,102502
1036.8415752729,102051
1040.59008591354,101877
1044.33429094005,101292
1048.07419035243,101245
1051.80978415068,100750
1055.5410723348,99900
1059.26805490478,100059
1062.99073186063,99521
1066.70910320235,99544
1071.66023403599,99262
1075.36855894474,99178
1079.07257823935,100489
1082.77229191983,100099
1086.46769998618,100433
1090.1588024384,100851
1093.84559927648,102175
1097.52809050043,102905
1101.20627611025,103780
1106.10382596803,104973
1109.77196514487,105619
1113.43579870759,106498
1117.09532665617,107758
1120.75054899062,108557
1124.40146571093,109376
1128.04807681712,110338
1131.69038230917,111371
1135.32838218709,112150
1140.172351069,113708
1143.80030451395,114887
1147.42395234476,116066
1151.04329456145,117149
1154.658331164,117989
1158.26906215241,119351
1161.8754875267,120810
1165.47760728685,121478
1169.07542143287,122994
1173.86580933892,124868
1177.45357705197,126295
1181.03703915088,127077
1184.61619563566,129171
1188.19104650631,130931
1191.76159176283,133025
1195.32783140522,134547
1198.88976543347,136678
1202.44739384759,138489
1207.18420077777,140707
1210.73178275892,142162
1214.27505912594,144750
1217.81402987882,145896
1221.34869501757,148324
1224.87905454219,149948
1228.40510845267,151585
1231.92685674903,153242
1235.44429943125,154875
1240.12752538557,156784
1243.63492163481,158296
1247.13801226993,159500
1250.63679729091,160273
1254.13127669776,161449
1257.62145049048,163769
1261.10731866907,166252
1264.58888123353,168437
1268.06613818385,170555
1272.6957831623,172849
1276.16299367965,174607
1279.62589858286,176321
1283.08449787195,178130
1286.5387915469,179197
1289.98877960772,179959
1293.43446205441,181191
1296.87583888696,182437
1300.31291010539,183225
1304.88897410797,183687
1308.31599889342,184148
1311.73871806474,184859
1315.15713162192,184951
1318.57123956497,185130
1321.98104189389,185504
1325.38653860868,185152
1328.78772970934,185371
1332.18461519586,185117
1336.70709822258,185278
1340.09393727613,184705
1343.47647071555,183718
1346.85469854083,183245
1350.22862075199,182223
1353.59823734901,181300
1356.9635483319,180166
1360.32455370065,179253
1363.68125345528,178371
1368.15015550613,177578
1371.49680882778,176563
1374.8391565353,175353
1378.17719862868,173350
1381.51093510794,171470
1384.84036597306,169977
1388.16549122405,167849
1391.48631086091,166847
1394.80282488363,165416
1399.21814595862,164321
1402.52461354837,163842
1405.82677552399,162918
1409.12463188548,163198
1412.41818263283,162420
1415.70742776605,162313
1418.99236728514,162018
1422.2730011901,161881
1425.54932948093,162392
1429.91106958005,161846
1433.1773514379,162421
1436.43932768162,162111
1439.6969983112,162932
1442.95036332666,162760
1446.19942272798,162925
1449.44417651517,162804
1452.68462468823,162426
1456.99852463033,162069
1460.22892637041,161839
1463.45502249637,161246
1466.67681300819,161246
1469.89429790587,160399
1473.10747718943,160363
1476.31635085885,159145
1479.52091891415,158330
1482.72118135531,157600
1486.98150032154,156840
1490.17171632972,155689
1493.35762672377,155099
1496.53923150369,154028
1499.71653066948,153350
1502.88952422114,151734
1506.05821215866,151209
1509.22259448206,150106
1512.38267119132,149087
1516.58940918168,147018
1519.73943945797,146070
1522.88516412012,144932
1526.02658316814,143644
1529.16369660203,142541
1532.29650442179,140816
1535.42500662741,139502
1538.54920321891,138277
1541.66909419627,136885
1545.82225121076,135144
1548.93209575515,133468
1552.0376346854,131127
1555.13886800153,130025
1558.23579570352,128160
1561.32841779137,126716
1564.4167342651,124625
1567.50074512469,123172
1570.58045037016,120904
1574.68002640879,118484
1577.74968522127,116604
1580.81503841963,114314
1583.87608600385,112267
1586.93282797394,110028
1589.9852643299,107997
1593.03339507173,105857
1596.07722019942,103664
1599.11673971298,101476
1603.16273477575,98643
1606.19220785634,96776
1609.21737532279,94297
1612.23823717512,92536
1615.25479341331,90267
1618.26704403737,88352
1621.27498904729,86053
1624.27862844309,84342
1627.27796222475,81620
1631.27037631165,79119
1634.25966366034,76676
1637.2446453949,74558
1640.22532151532,71908
1643.20169202161,69734
1646.17375691377,67447
1649.1415161918,65108
1652.10496985569,62556
1655.06411790546,60299
1659.00295101649,57592
1661.95205263328,55831
1664.89684863594,54234
1667.83733902446,52123
1670.77352379886,51021
1673.70540295912,48961
1676.63297650524,46820
1679.55624443724,44467
1682.4752067551,41774
1686.36045889027,38499
1689.26937477516,35523
1692.17398504592,32186
1695.07428970255,28822
1697.97028874504,25097
1700.8619821734,21667
##END=
