##TITLE=Column 1
##JCAMP-DX=4.24
##DATA TYPE=INFRARED SPECTRUM
##Method:,Column 1,Built-In Reference,,,Model Name,NIR-X-XX
##Host Date-Time:,27/10/20 @ 14:36:21,9/7/19 @ 16:39:9,,,GUI Version,2.4.4
##Header Version:,1,1,,,Tiva Version,2.1.0.67
##System Temp (C):,54.02,27.52,,,DLPC Version,2.0.0
##Detector Temp (C),0,0,,,UUID,00:00:00:00:00:00:00:00
##Humidity (%):,13.86,73.2,,,Main Board Version,D
##Lamp PD:,2724,2274
##Shift Vector Coefficients:,-6.85384978732833,0.0551332794684546,-0.000110731550088635
##Pixel to Wavelength Coefficients:,1790.66412099084,-0.917492857141292,-0.000239200785115314
##Serial Number:,925R021,925R021
##Scan Config Name:,Column 1,SystemTest
##Scan Config Type:,Column,Column
##Start wavelength (nm):,900,900
##End wavelength (nm):,1700,1700
##Pattern Pixel Width (nm):,7.03,7.03
##Exposure (ms):,0.635,0.635
##Digital Resolution:,228,228
##NPOINTS=228
##Num Repeats:,6,30
##PGA Gain:,64,64
##Total Measurement Time in sec:,1.8201333
##XUNITS=Wavelength(nm)
##YUNITS=Intensity
##FIRSTX=901.630473432251
##LASTX=1700.8619821734
##PEAK TABLE=X+(Y..Y)
901.630473432251,31804
905.531115772228,34334
909.427452498074,36858
913.319483609787,39990
917.207209107368,42822
921.090628990817,47542
924.969743260134,52086
930.13519799724,59650
934.004265833582,65952
937.869028055792,72800
941.72948466387,79059
945.585635657816,84397
949.43748103763,88882
953.285020803312,92847
957.128254954862,96926
960.967183492279,100474
966.07905725352,104929
969.907939357962,108329
973.732515848273,111150
977.552786724452,113976
981.368751986498,116411
985.180411634413,118602
988.987765668195,120654
992.790814087846,122794
996.589556893364,124313
1001.64784967874,125704
1005.43654605128,127243
1009.22093680969,127470
1013.00102195397,128380
1016.77680148412,128703
1020.54827540013,128695
1024.31544370202,128873
1028.07830638977,128626
1031.83686346339,128198
1036.8415752729,128299
1040.59008591354,127346
1044.33429094005,127106
1048.07419035243,126384
1051.80978415068,126284
1055.5410723348,125738
1059.26805490478,125733
1062.99073186063,125205
1066.70910320235,124902
1071.66023403599,124705
1075.36855894474,125119
1079.07257823935,125565
1082.77229191983,126238
1086.46769998618,126833
1090.1588024384,126922
1093.84559927648,128132
1097.52809050043,128905
1101.20627611025,129893
1106.10382596803,131176
1109.77196514487,132618
1113.43579870759,133443
1117.09532665617,134418
1120.75054899062,135704
1124.40146571093,136431
1128.04807681712,137834
1131.69038230917,138990
1135.32838218709,140326
1140.172351069,142054
1143.80030451395,143538
1147.42395234476,145188
1151.04329456145,146169
1154.658331164,147987
1158.26906215241,149309
1161.8754875267,151066
1165.47760728685,152732
1169.07542143287,154275
1173.86580933892,157193
1177.45357705197,158161
1181.03703915088,160835
1184.61619563566,162672
1188.19104650631,164763
1191.76159176283,166897
1195.32783140522,169420
1198.88976543347,171970
1202.44739384759,174089
1207.18420077777,177927
1210.73178275892,180413
1214.27505912594,182609
1217.81402987882,185208
1221.34869501757,187363
1224.87905454219,189746
1228.40510845267,192260
1231.92685674903,194596
1235.44429943125,196362
1240.12752538557,199058
1243.63492163481,201300
1247.13801226993,201842
1250.63679729091,203228
1254.13127669776,205606
1257.62145049048,208090
1261.10731866907,210829
1264.58888123353,214273
1268.06613818385,216531
1272.6957831623,220068
1276.16299367965,222524
1279.62589858286,224314
1283.08449787195,226094
1286.5387915469,227738
1289.98877960772,228765
1293.43446205441,230650
1296.87583888696,232172
1300.31291010539,232529
1304.88897410797,233870
1308.31599889342,234501
1311.73871806474,235079
1315.15713162192,235518
1318.57123956497,236082
1321.98104189389,236035
1325.38653860868,236227
1328.78772970934,235947
1332.18461519586,236075
1336.70709822258,235350
1340.09393727613,234927
1343.47647071555,234409
1346.85469854083,233580
1350.22862075199,232257
1353.59823734901,230877
1356.9635483319,229886
1360.32455370065,228244
1363.68125345528,227004
1368.15015550613,225774
1371.49680882778,224840
1374.8391565353,223099
1378.17719862868,220325
1381.51093510794,218129
1384.84036597306,215577
1388.16549122405,213366
1391.48631086091,211538
1394.80282488363,209488
1399.21814595862,207907
1402.52461354837,206639
1405.82677552399,205605
1409.12463188548,205026
1412.41818263283,204476
1415.70742776605,203741
1418.99236728514,203849
1422.2730011901,203768
1425.54932948093,203597
1429.91106958005,203492
1433.1773514379,203630
1436.43932768162,203805
1439.6969983112,204264
1442.95036332666,204416
1446.19942272798,204304
1449.44417651517,204007
1452.68462468823,203723
1456.99852463033,203486
1460.22892637041,202817
1463.45502249637,202086
1466.67681300819,201346
1469.89429790587,200799
1473.10747718943,200136
1476.31635085885,199389
1479.52091891415,198137
1482.72118135531,197306
1486.98150032154,195683
1490.17171632972,194636
1493.35762672377,193276
1496.53923150369,192081
1499.71653066948,190675
1502.88952422114,189476
1506.05821215866,187984
1509.22259448206,186580
1512.38267119132,185281
1516.58940918168,182995
1519.73943945797,181821
1522.88516412012,179841
1526.02658316814,178438
1529.16369660203,176949
1532.29650442179,174984
1535.42500662741,172921
1538.54920321891,171376
1541.66909419627,169774
1545.82225121076,166621
1548.93209575515,165281
1552.0376346854,162814
1555.13886800153,160654
1558.23579570352,158809
1561.32841779137,156748
1564.4167342651,154636
1567.50074512469,151963
1570.58045037016,149407
1574.68002640879,145657
1577.74968522127,143270
1580.81503841963,140296
1583.87608600385,137549
1586.93282797394,135313
1589.9852643299,132554
1593.03339507173,129504
1596.07722019942,126815
1599.11673971298,123867
1603.16273477575,120465
1606.19220785634,118042
1609.21737532279,115245
1612.23823717512,112502
1615.25479341331,109664
1618.26704403737,107239
1621.27498904729,104646
1624.27862844309,102262
1627.27796222475,99413
1631.27037631165,95928
1634.25966366034,93387
1637.2446453949,90510
1640.22532151532,87466
1643.20169202161,84298
1646.17375691377,81182
1649.1415161918,78536
1652.10496985569,75460
1655.06411790546,72576
1659.00295101649,69051
1661.95205263328,66989
1664.89684863594,65503
1667.83733902446,62985
1670.77352379886,61939
1673.70540295912,58794
1676.63297650524,56547
1679.55624443724,53782
1682.4752067551,50864
1686.36045889027,46140
1689.26937477516,42741
1692.17398504592,38810
1695.07428970255,34451
1697.97028874504,30349
1700.8619821734,26338
##END=
