##TITLE=Column 1
##JCAMP-DX=4.24
##DATA TYPE=INFRARED SPECTRUM
##Method:,Column 1,Built-In Reference,,,Model Name,NIR-X-XX
##Host Date-Time:,27/10/20 @ 14:35:59,9/7/19 @ 16:39:9,,,GUI Version,2.4.4
##Header Version:,1,1,,,Tiva Version,2.1.0.67
##System Temp (C):,53.97,27.52,,,DLPC Version,2.0.0
##Detector Temp (C),0,0,,,UUID,00:00:00:00:00:00:00:00
##Humidity (%):,13.86,73.2,,,Main Board Version,D
##Lamp PD:,2724,2274
##Shift Vector Coefficients:,-6.85384978732833,0.0551332794684546,-0.000110731550088635
##Pixel to Wavelength Coefficients:,1790.66412099084,-0.917492857141292,-0.000239200785115314
##Serial Number:,925R021,925R021
##Scan Config Name:,Column 1,SystemTest
##Scan Config Type:,Column,Column
##Start wavelength (nm):,900,900
##End wavelength (nm):,1700,1700
##Pattern Pixel Width (nm):,7.03,7.03
##Exposure (ms):,0.635,0.635
##Digital Resolution:,228,228
##NPOINTS=228
##Num Repeats:,6,30
##PGA Gain:,64,64
##Total Measurement Time in sec:,1.8171422
##XUNITS=Wavelength(nm)
##YUNITS=Intensity
##FIRSTX=901.630473432251
##LASTX=1700.8619821734
##PEAK TABLE=X+(Y..Y)
901.630473432251,29385
905.531115772228,31692
909.427452498074,33998
913.319483609787,36572
917.207209107368,39302
921.090628990817,42807
924.969743260134,47239
930.13519799724,54321
934.004265833582,60206
937.869028055792,65534
941.72948466387,71479
945.585635657816,75839
949.43748103763,80308
953.285020803312,83869
957.128254954862,87405
960.967183492279,90043
966.07905725352,94534
969.907939357962,97548
973.732515848273,100350
977.552786724452,102828
981.368751986498,104970
985.180411634413,107370
988.987765668195,108920
992.790814087846,110908
996.589556893364,112453
1001.64784967874,113705
1005.43654605128,115046
1009.22093680969,115333
1013.00102195397,115748
1016.77680148412,116026
1020.54827540013,115989
1024.31544370202,116249
1028.07830638977,116347
1031.83686346339,116533
1036.8415752729,116184
1040.59008591354,115773
1044.33429094005,115111
1048.07419035243,114948
1051.80978415068,114826
1055.5410723348,114725
1059.26805490478,114542
1062.99073186063,114282
1066.70910320235,114148
1071.66023403599,114498
1075.36855894474,114887
1079.07257823935,115253
1082.77229191983,115957
1086.46769998618,116494
1090.1588024384,116762
1093.84559927648,118121
1097.52809050043,118597
1101.20627611025,119531
1106.10382596803,121074
1109.77196514487,121834
1113.43579870759,123187
1117.09532665617,124402
1120.75054899062,125198
1124.40146571093,126362
1128.04807681712,127408
1131.69038230917,127857
1135.32838218709,129630
1140.172351069,130938
1143.80030451395,132406
1147.42395234476,133230
1151.04329456145,134289
1154.658331164,135907
1158.26906215241,137108
1161.8754875267,138200
1165.47760728685,139434
1169.07542143287,140779
1173.86580933892,142743
1177.45357705197,144366
1181.03703915088,145993
1184.61619563566,147460
1188.19104650631,149508
1191.76159176283,151047
1195.32783140522,153313
1198.88976543347,155347
1202.44739384759,157526
1207.18420077777,160269
1210.73178275892,162200
1214.27505912594,164275
1217.81402987882,166679
1221.34869501757,168573
1224.87905454219,171076
1228.40510845267,172676
1231.92685674903,174916
1235.44429943125,176613
1240.12752538557,178986
1243.63492163481,180738
1247.13801226993,181819
1250.63679729091,182861
1254.13127669776,184771
1257.62145049048,187650
1261.10731866907,190060
1264.58888123353,192821
1268.06613818385,195402
1272.6957831623,198179
1276.16299367965,200602
1279.62589858286,202288
1283.08449787195,204143
1286.5387915469,205519
1289.98877960772,206985
1293.43446205441,208166
1296.87583888696,209091
1300.31291010539,209617
1304.88897410797,211207
1308.31599889342,211288
1311.73871806474,212188
1315.15713162192,212540
1318.57123956497,212531
1321.98104189389,213022
1325.38653860868,212851
1328.78772970934,213042
1332.18461519586,212798
1336.70709822258,212064
1340.09393727613,211969
1343.47647071555,211507
1346.85469854083,210127
1350.22862075199,209617
1353.59823734901,207923
1356.9635483319,207108
1360.32455370065,205744
1363.68125345528,204727
1368.15015550613,203168
1371.49680882778,202138
1374.8391565353,200513
1378.17719862868,198923
1381.51093510794,196522
1384.84036597306,194569
1388.16549122405,192245
1391.48631086091,190554
1394.80282488363,188673
1399.21814595862,186954
1402.52461354837,186261
1405.82677552399,185286
1409.12463188548,184246
1412.41818263283,184128
1415.70742776605,183981
1418.99236728514,183874
1422.2730011901,184082
1425.54932948093,183755
1429.91106958005,184008
1433.1773514379,184646
1436.43932768162,184516
1439.6969983112,184897
1442.95036332666,184954
1446.19942272798,184934
1449.44417651517,185054
1452.68462468823,184960
1456.99852463033,184497
1460.22892637041,184278
1463.45502249637,183326
1466.67681300819,182832
1469.89429790587,182508
1473.10747718943,181669
1476.31635085885,180840
1479.52091891415,180266
1482.72118135531,179449
1486.98150032154,178117
1490.17171632972,177426
1493.35762672377,175975
1496.53923150369,175351
1499.71653066948,174030
1502.88952422114,172731
1506.05821215866,171501
1509.22259448206,169919
1512.38267119132,168836
1516.58940918168,166495
1519.73943945797,165232
1522.88516412012,163936
1526.02658316814,162285
1529.16369660203,160718
1532.29650442179,158886
1535.42500662741,157408
1538.54920321891,155274
1541.66909419627,153742
1545.82225121076,151684
1548.93209575515,149182
1552.0376346854,147314
1555.13886800153,144881
1558.23579570352,143160
1561.32841779137,140902
1564.4167342651,138505
1567.50074512469,136378
1570.58045037016,134412
1574.68002640879,130427
1577.74968522127,127977
1580.81503841963,125677
1583.87608600385,122642
1586.93282797394,120548
1589.9852643299,117806
1593.03339507173,115187
1596.07722019942,112588
1599.11673971298,109954
1603.16273477575,106659
1606.19220785634,104227
1609.21737532279,101660
1612.23823717512,99398
1615.25479341331,96953
1618.26704403737,94611
1621.27498904729,91578
1624.27862844309,89372
1627.27796222475,86980
1631.27037631165,83279
1634.25966366034,80765
1637.2446453949,78428
1640.22532151532,75660
1643.20169202161,72500
1646.17375691377,70049
1649.1415161918,67373
1652.10496985569,64918
1655.06411790546,62098
1659.00295101649,58803
1661.95205263328,56917
1664.89684863594,55500
1667.83733902446,53638
1670.77352379886,52324
1673.70540295912,50006
1676.63297650524,47893
1679.55624443724,45082
1682.4752067551,42416
1686.36045889027,38935
1689.26937477516,35777
1692.17398504592,32836
1695.07428970255,28917
1697.97028874504,25320
1700.8619821734,21884
##END=
