##TITLE=Column 1
##JCAMP-DX=4.24
##DATA TYPE=INFRARED SPECTRUM
##Method:,Column 1,Built-In Reference,,,Model Name,NIR-X-XX
##Host Date-Time:,27/10/20 @ 14:35:55,9/7/19 @ 16:39:9,,,GUI Version,2.4.4
##Header Version:,1,1,,,Tiva Version,2.1.0.67
##System Temp (C):,53.96,27.52,,,DLPC Version,2.0.0
##Detector Temp (C),0,0,,,UUID,00:00:00:00:00:00:00:00
##Humidity (%):,13.86,73.2,,,Main Board Version,D
##Lamp PD:,2724,2274
##Shift Vector Coefficients:,-6.85384978732833,0.0551332794684546,-0.000110731550088635
##Pixel to Wavelength Coefficients:,1790.66412099084,-0.917492857141292,-0.000239200785115314
##Serial Number:,925R021,925R021
##Scan Config Name:,Column 1,SystemTest
##Scan Config Type:,Column,Column
##Start wavelength (nm):,900,900
##End wavelength (nm):,1700,1700
##Pattern Pixel Width (nm):,7.03,7.03
##Exposure (ms):,0.635,0.635
##Digital Resolution:,228,228
##NPOINTS=228
##Num Repeats:,6,30
##PGA Gain:,64,64
##Total Measurement Time in sec:,1.8291247
##XUNITS=Wavelength(nm)
##YUNITS=Intensity
##FIRSTX=901.630473432251
##LASTX=1700.8619821734
##PEAK TABLE=X+(Y..Y)
901.630473432251,34085
905.531115772228,37021
909.427452498074,39597
913.319483609787,42564
917.207209107368,45602
921.090628990817,50081
924.969743260134,55024
930.13519799724,63215
934.004265833582,70040
937.869028055792,76872
941.72948466387,83330
945.585635657816,88107
949.43748103763,92500
953.285020803312,97048
957.128254954862,100073
960.967183492279,103654
966.07905725352,107907
969.907939357962,111386
973.732515848273,114578
977.552786724452,116608
981.368751986498,119394
985.180411634413,121857
988.987765668195,124102
992.790814087846,125768
996.589556893364,127336
1001.64784967874,128755
1005.43654605128,129858
1009.22093680969,130489
1013.00102195397,131330
1016.77680148412,130848
1020.54827540013,130846
1024.31544370202,130808
1028.07830638977,130684
1031.83686346339,130282
1036.8415752729,129671
1040.59008591354,129180
1044.33429094005,128446
1048.07419035243,127905
1051.80978415068,127412
1055.5410723348,126825
1059.26805490478,126585
1062.99073186063,126250
1066.70910320235,126266
1071.66023403599,126174
1075.36855894474,126298
1079.07257823935,127049
1082.77229191983,128007
1086.46769998618,128864
1090.1588024384,129609
1093.84559927648,130707
1097.52809050043,131810
1101.20627611025,132937
1106.10382596803,134700
1109.77196514487,136596
1113.43579870759,138001
1117.09532665617,139687
1120.75054899062,141082
1124.40146571093,142469
1128.04807681712,144164
1131.69038230917,145098
1135.32838218709,147238
1140.172351069,149300
1143.80030451395,151046
1147.42395234476,152345
1151.04329456145,153563
1154.658331164,155324
1158.26906215241,156741
1161.8754875267,158219
1165.47760728685,159971
1169.07542143287,161416
1173.86580933892,163972
1177.45357705197,165278
1181.03703915088,167155
1184.61619563566,169458
1188.19104650631,171428
1191.76159176283,173591
1195.32783140522,175666
1198.88976543347,178198
1202.44739384759,180895
1207.18420077777,183653
1210.73178275892,186263
1214.27505912594,188142
1217.81402987882,190772
1221.34869501757,192648
1224.87905454219,195102
1228.40510845267,197048
1231.92685674903,199254
1235.44429943125,201129
1240.12752538557,203429
1243.63492163481,205265
1247.13801226993,206205
1250.63679729091,207738
1254.13127669776,209496
1257.62145049048,212546
1261.10731866907,215296
1264.58888123353,218526
1268.06613818385,221595
1272.6957831623,224319
1276.16299367965,226241
1279.62589858286,228058
1283.08449787195,230602
1286.5387915469,231463
1289.98877960772,233589
1293.43446205441,234663
1296.87583888696,236149
1300.31291010539,237067
1304.88897410797,238173
1308.31599889342,238841
1311.73871806474,239613
1315.15713162192,239685
1318.57123956497,240296
1321.98104189389,240480
1325.38653860868,240253
1328.78772970934,240486
1332.18461519586,240175
1336.70709822258,240015
1340.09393727613,239519
1343.47647071555,238951
1346.85469854083,237935
1350.22862075199,236656
1353.59823734901,235590
1356.9635483319,233811
1360.32455370065,232302
1363.68125345528,231402
1368.15015550613,230181
1371.49680882778,228846
1374.8391565353,227393
1378.17719862868,224833
1381.51093510794,221797
1384.84036597306,219976
1388.16549122405,217526
1391.48631086091,215557
1394.80282488363,214028
1399.21814595862,211973
1402.52461354837,210821
1405.82677552399,209551
1409.12463188548,209342
1412.41818263283,208247
1415.70742776605,208601
1418.99236728514,208166
1422.2730011901,208163
1425.54932948093,208021
1429.91106958005,208347
1433.1773514379,208574
1436.43932768162,209039
1439.6969983112,208929
1442.95036332666,209190
1446.19942272798,209058
1449.44417651517,209296
1452.68462468823,208729
1456.99852463033,208356
1460.22892637041,207837
1463.45502249637,207331
1466.67681300819,206355
1469.89429790587,205786
1473.10747718943,205302
1476.31635085885,204148
1479.52091891415,203685
1482.72118135531,202487
1486.98150032154,201234
1490.17171632972,199948
1493.35762672377,198887
1496.53923150369,197441
1499.71653066948,196484
1502.88952422114,194976
1506.05821215866,193734
1509.22259448206,191843
1512.38267119132,190768
1516.58940918168,188832
1519.73943945797,187394
1522.88516412012,186012
1526.02658316814,184160
1529.16369660203,182491
1532.29650442179,180674
1535.42500662741,178823
1538.54920321891,177261
1541.66909419627,175533
1545.82225121076,173035
1548.93209575515,171169
1552.0376346854,168706
1555.13886800153,166694
1558.23579570352,164524
1561.32841779137,162544
1564.4167342651,160323
1567.50074512469,157979
1570.58045037016,155534
1574.68002640879,152265
1577.74968522127,149377
1580.81503841963,146749
1583.87608600385,144014
1586.93282797394,141329
1589.9852643299,138886
1593.03339507173,135718
1596.07722019942,132829
1599.11673971298,130200
1603.16273477575,126561
1606.19220785634,124281
1609.21737532279,120949
1612.23823717512,118481
1615.25479341331,115536
1618.26704403737,113070
1621.27498904729,110192
1624.27862844309,107111
1627.27796222475,104266
1631.27037631165,100942
1634.25966366034,97623
1637.2446453949,94572
1640.22532151532,91866
1643.20169202161,88788
1646.17375691377,85190
1649.1415161918,82522
1652.10496985569,79449
1655.06411790546,76414
1659.00295101649,73220
1661.95205263328,70173
1664.89684863594,68369
1667.83733902446,65758
1670.77352379886,63710
1673.70540295912,61178
1676.63297650524,57889
1679.55624443724,55176
1682.4752067551,51583
1686.36045889027,46944
1689.26937477516,43171
1692.17398504592,38987
1695.07428970255,34805
1697.97028874504,30204
1700.8619821734,26263
##END=
